# Energy shift = 0.71
# a_0: 0.17 +- 1.00, domain: [20.71eV ,21.43eV]
# Y-offset = 0.0+-0.0215, AE = 21.5629+-0.0071, Scale Factor = 51.9891+-0.4539, Alpha = 1.1386+-0.0242
# -------------------------------------------------------------
Energy	Counts	Errors	Combined Fit	Fit 1	Fit 2(incl. prev.)
20.710000	0.480000	1.170299	0.166156	0.166142	0.166156
20.720000	0.640000	1.352923	0.166156	0.166142	0.166156
20.730000	0.160000	0.542586	0.166156	0.166142	0.166156
20.740000	0.720000	1.483779	0.166156	0.166142	0.166156
20.750000	0.720000	1.778089	0.166156	0.166142	0.166156
20.760000	0.480000	1.024500	0.166156	0.166142	0.166156
20.770000	0.720000	1.778089	0.166156	0.166142	0.166156
20.780000	0.480000	0.854166	0.166156	0.166142	0.166156
20.790000	0.320000	0.733212	0.166156	0.166142	0.166156
20.800000	0.160000	0.783837	0.166156	0.166142	0.166156
20.810000	0.880000	1.274990	0.166156	0.166142	0.166156
20.820000	0.160000	0.542586	0.166156	0.166142	0.166156
20.830000	0.560000	0.897998	0.166156	0.166142	0.166156
20.840000	0.240000	0.861626	0.166156	0.166142	0.166156
20.850000	0.320000	0.926067	0.166156	0.166142	0.166156
20.860000	0.480000	1.024500	0.166156	0.166142	0.166156
20.870000	0.400000	0.979796	0.166156	0.166142	0.166156
20.880000	1.120000	2.268392	0.166156	0.166142	0.166156
20.890000	0.480000	1.417604	0.166156	0.166142	0.166156
20.900000	0.880000	1.704582	0.166156	0.166142	0.166156
20.910000	0.480000	1.299846	0.166156	0.166142	0.166156
20.920000	1.200000	1.496663	0.166156	0.166142	0.166156
20.930000	0.560000	1.061320	0.166156	0.166142	0.166156
20.940000	0.560000	1.202664	0.166156	0.166142	0.166156
20.950000	0.400000	0.979796	0.166156	0.166142	0.166156
20.960000	0.480000	1.024500	0.166156	0.166142	0.166156
20.970000	0.400000	0.979796	0.166156	0.166142	0.166156
20.980000	0.560000	1.329060	0.166156	0.166142	0.166156
20.990000	0.560000	1.202664	0.166156	0.166142	0.166156
21.000000	0.320000	0.926067	0.166156	0.166142	0.166156
21.010000	0.400000	0.979796	0.166156	0.166142	0.166156
21.020000	0.320000	1.085173	0.166156	0.166142	0.166156
21.030000	0.400000	0.979796	0.166156	0.166142	0.166156
21.040000	0.480000	1.024500	0.166156	0.166142	0.166156
21.050000	0.560000	1.745394	0.166156	0.166142	0.166156
21.060000	0.320000	0.926067	0.166156	0.166142	0.166156
21.070000	0.560000	1.202664	0.166156	0.166142	0.166156
21.080000	0.160000	0.542586	0.166156	0.166142	0.166156
21.090000	0.480000	1.170299	0.166156	0.166142	0.166156
21.100000	0.400000	0.979796	0.166156	0.166142	0.166156
21.110000	0.400000	1.131371	0.166156	0.166142	0.166156
21.120000	0.160000	0.783837	0.166156	0.166142	0.166156
21.130000	0.400000	0.800000	0.166156	0.166142	0.166156
21.140000	0.880000	1.795996	0.166157	0.166142	0.166157
21.150000	0.400000	0.979796	0.166157	0.166142	0.166157
21.160000	1.040000	1.611955	0.166158	0.166142	0.166158
21.170000	0.080000	0.391918	0.166159	0.166142	0.166159
21.180000	0.320000	0.926067	0.166161	0.166142	0.166161
21.190000	0.400000	1.264911	0.166164	0.166142	0.166164
21.200000	0.000000	0.000000	0.166170	0.166142	0.166170
21.210000	0.800000	1.876166	0.166180	0.166142	0.166180
21.220000	0.320000	0.926067	0.166197	0.166142	0.166197
21.230000	0.320000	0.926067	0.166226	0.166142	0.166226
21.240000	0.720000	1.114271	0.166272	0.166142	0.166272
21.250000	0.640000	1.571751	0.166346	0.166142	0.166346
21.260000	0.320000	0.733212	0.166465	0.166142	0.166465
21.270000	0.560000	1.061320	0.166651	0.166142	0.166651
21.280000	0.720000	1.483779	0.166940	0.166142	0.166940
21.290000	0.640000	1.352923	0.167383	0.166142	0.167383
21.300000	0.400000	0.800000	0.168052	0.166142	0.168052
21.310000	0.720000	1.371714	0.169052	0.166142	0.169052
21.320000	0.320000	0.926067	0.170526	0.166142	0.170526
21.330000	0.560000	1.329060	0.172671	0.166142	0.172671
21.340000	1.040000	1.611955	0.175754	0.166142	0.175754
21.350000	0.320000	0.733212	0.180129	0.166142	0.180129
21.360000	0.480000	1.417604	0.186261	0.166142	0.186261
21.370000	0.800000	1.600000	0.194748	0.166142	0.194748
21.380000	1.040000	1.399428	0.206351	0.166142	0.206351
21.390000	1.120000	1.966113	0.222019	0.166142	0.222019
21.400000	0.720000	1.483779	0.242922	0.166142	0.242922
21.410000	0.800000	1.385641	0.270474	0.166142	0.270474
21.420000	0.640000	1.352923	0.306355	0.166142	0.306355
21.430000	0.800000	1.131371	0.352534	0.166142	0.352534
21.440000	0.960000	1.799556	0.411271	0.166142	0.411271
21.450000	0.720000	1.249640	0.485122	0.166142	0.485122
21.460000	0.880000	1.394848	0.576916	0.166142	0.576916
21.470000	1.520000	1.417604	0.689733	0.166142	0.689733
21.480000	1.520000	2.483868	0.826852	0.166142	0.826852
21.490000	0.880000	1.505191	0.991696	0.166142	0.991696
21.500000	1.040000	1.280000	1.187753	0.166142	1.187753
21.510000	1.440000	1.920000	1.418492	0.166142	1.418492
21.520000	1.840000	2.326886	1.687264	0.166142	1.687264
21.530000	2.000000	2.332381	1.997210	0.166142	1.997210
21.540000	1.680000	2.167395	2.351155	0.166142	2.351155
21.550000	2.400000	3.249615	2.751524	0.166142	2.751524
21.560000	1.840000	2.648471	3.200258	0.166142	3.200258
21.570000	3.920000	3.223911	3.698754	0.166142	3.698754
21.580000	2.640000	2.868867	4.247823	0.166142	4.247823
21.590000	4.400000	4.156922	4.847671	0.166142	4.847671
21.600000	3.920000	3.772744	5.497901	0.166142	5.497901
21.610000	6.960000	4.422488	6.197546	0.166142	6.197546
21.620000	6.960000	4.634479	6.945113	0.166142	6.945113
21.630000	6.400000	4.664762	7.738654	0.166142	7.738654
21.640000	8.560000	4.508481	8.575842	0.166142	8.575842
21.650000	9.840000	5.452926	9.454062	0.166142	9.454062
21.660000	10.960000	4.458520	10.370501	0.166142	10.370501
21.670000	11.360000	4.757142	11.322237	0.166142	11.322237
21.680000	12.720000	6.063135	12.306321	0.166142	12.306321
21.690000	12.880000	5.853683	13.319856	0.166142	13.319856
21.700000	16.480000	6.794822	14.360050	0.166142	14.360050
21.710000	15.440000	6.753251	15.424274	0.166142	15.424274
21.720000	19.120000	7.819565	16.510091	0.166142	16.510091
21.730000	18.720000	5.180888	17.615280	0.166142	17.615280
21.740000	20.560000	7.889639	18.737847	0.166142	18.737847
21.750000	19.040000	6.276814	19.876025	0.166142	19.876025
21.760000	22.400000	6.858571	21.028264	0.166142	21.028264
21.770000	23.040000	7.022706	22.193223	0.166142	22.193223
21.780000	24.960000	7.922020	23.369745	0.166142	23.369745
21.790000	24.080000	9.059448	24.556845	0.166142	24.556845
21.800000	27.600000	10.673331	25.753681	0.166142	25.753681
21.810000	28.480000	7.616403	26.959541	0.166142	26.959541
21.820000	31.360000	8.498847	28.173820	0.166142	28.173820
21.830000	31.760000	11.514443	29.396003	0.166142	29.396003
21.840000	28.480000	9.161310	30.625649	0.166142	30.625649
21.850000	28.960000	8.487544	31.862381	0.166142	31.862381
21.860000	32.800000	10.910545	33.105871	0.166142	33.105871
21.870000	34.640000	9.711354	34.355831	0.166142	34.355831
21.880000	35.680000	9.776380	35.612009	0.166142	35.612009
21.890000	35.040000	7.570892	36.874179	0.166142	36.874179
21.900000	38.880000	10.136350	38.142136	0.166142	38.142136
21.910000	41.360000	11.195999	39.415697	0.166142	39.415697
21.920000	40.960000	11.594757	40.694693	0.166142	40.694693
21.930000	42.000000	10.260604	41.978966	0.166142	41.978966
21.940000	43.040000	13.530647	43.268374	0.166142	43.268374
21.950000	45.040000	10.278054	44.562779	0.166142	44.562779
21.960000	49.600000	15.717506	45.862057	0.166142	45.862057
21.970000	47.680000	11.942261	47.166088	0.166142	47.166088
21.980000	49.840000	9.447455	48.474761	0.166142	48.474761
21.990000	51.360000	10.318449	49.787968	0.166142	49.787968
22.000000	49.280000	11.198286	51.105610	0.166142	51.105610
22.010000	49.360000	13.514082	52.427591	0.166142	52.427591
22.020000	56.800000	13.242356	53.753820	0.166142	53.753820
22.030000	48.880000	12.850899	55.084211	0.166142	55.084211
22.040000	51.040000	9.105954	56.418680	0.166142	56.418680
22.050000	58.880000	13.718076	57.757149	0.166142	57.757149
22.060000	59.440000	15.057437	59.099542	0.166142	59.099542
22.070000	60.400000	15.553778	60.445786	0.166142	60.445786
22.080000	59.840000	11.837838	61.795813	0.166142	61.795813
22.090000	63.760000	10.187365	63.149554	0.166142	63.149554
22.100000	58.880000	14.322905	64.506946	0.166142	64.506946
22.110000	66.560000	12.046842	65.867927	0.166142	65.867927
22.120000	70.480000	10.511403	67.232437	0.166142	67.232437
22.130000	70.880000	14.210756	68.600420	0.166142	68.600420
22.140000	74.000000	13.254433	69.971819	0.166142	69.971819
22.150000	68.480000	12.715723	71.346582	0.166142	71.346582
22.160000	71.520000	16.388093	72.724656	0.166142	72.724656
22.170000	72.560000	13.090699	74.105993	0.166142	74.105993
22.180000	76.320000	14.649833	75.490543	0.166142	75.490543
22.190000	78.720000	13.058392	76.878260	0.166142	76.878260
22.200000	80.640000	17.724288	78.269098	0.166142	78.269098
22.210000	73.920000	16.331369	79.663015	0.166142	79.663015
22.220000	84.240000	15.402026	81.059967	0.166142	81.059967
22.230000	85.120000	13.764650	82.459913	0.166142	82.459913
22.240000	81.840000	17.026286	83.862814	0.166142	83.862814
22.250000	83.920000	18.464929	85.268630	0.166142	85.268630
22.260000	85.200000	13.994285	86.677324	0.166142	86.677324
22.270000	87.200000	13.728802	88.088859	0.166142	88.088859
22.280000	91.280000	12.935285	89.503199	0.166142	89.503199
22.290000	89.760000	13.952147	90.920310	0.166142	90.920310
22.300000	96.400000	17.073957	92.340158	0.166142	92.340158
22.310000	91.040000	13.671810	93.762710	0.166142	93.762710
22.320000	93.840000	13.575507	95.187934	0.166142	95.187934
22.330000	97.360000	16.116774	96.615799	0.166142	96.615799
22.340000	99.760000	14.547247	98.046274	0.166142	98.046274
22.350000	95.520000	19.857734	99.479330	0.166142	99.479330
22.360000	97.200000	20.199010	100.914938	0.166142	100.914938
22.370000	107.500000	14.156624	102.353069	0.166142	102.353069
22.380000	99.120000	13.351614	103.793697	0.166142	103.793697
22.390000	98.640000	16.634615	105.236794	0.166142	105.236794
22.400000	100.100000	20.949320	106.682333	0.166142	106.682333
22.410000	107.600000	13.635248	108.130290	0.166142	108.130290
22.420000	107.600000	15.221038	109.580639	0.166142	109.580639
22.430000	114.700000	22.844737	111.033356	0.166142	111.033356
22.440000	110.500000	18.183784	112.488416	0.166142	112.488416
22.450000	112.900000	12.962484	113.945796	0.166142	113.945796
22.460000	113.200000	15.959950	115.405474	0.166142	115.405474
22.470000	122.800000	19.200000	116.867426	0.166142	116.867426
22.480000	112.600000	21.329604	118.331631	0.166142	118.331631
22.490000	122.500000	18.738463	119.798068	0.166142	119.798068
22.500000	126.800000	18.998947	121.266714	0.166142	121.266714
22.510000	123.600000	14.288457	122.737550	0.166142	122.737550
22.520000	125.400000	15.795949	124.210555	0.166142	124.210555
22.530000	126.200000	17.896815	125.685709	0.166142	125.685709
22.540000	127.500000	20.232894	127.162994	0.166142	127.162994
22.550000	130.000000	15.041277	128.642389	0.166142	128.642389
22.560000	137.700000	22.982994	130.123877	0.166142	130.123877
22.570000	134.700000	16.462138	131.607438	0.166142	131.607438
22.580000	137.100000	21.858316	133.093055	0.166142	133.093055
22.590000	129.900000	18.369377	134.580710	0.166142	134.580710
22.600000	133.000000	17.335513	136.070387	0.166142	136.070387
22.610000	136.200000	14.575870	137.562067	0.166142	137.562067
22.620000	140.900000	19.233980	139.055734	0.166142	139.055734
22.630000	139.500000	22.685899	140.551371	0.166142	140.551371
22.640000	144.300000	18.107954	142.048964	0.166142	142.048964
22.650000	145.700000	16.518414	143.548495	0.166142	143.548495
22.660000	143.000000	22.550388	145.049949	0.166142	145.049949
22.670000	153.200000	18.744599	146.553312	0.166142	146.553312
22.680000	143.500000	14.179210	148.058567	0.166142	148.058567
22.690000	154.300000	22.976031	149.565700	0.166142	149.565700
22.700000	157.000000	29.660074	151.074697	0.166142	151.074697
22.710000	150.500000	22.416289	152.585544	0.166142	152.585544
