# Energy shift = 0.66
# Y-offset = 0.0028+-0.0023, AE = 12.9141+-0.1265, Scale Factor = 0.2534+-0.0706, Alpha = 1.8944+-0.3396
# Y-offset = 0.01+-0.0551, AE = 15.5559+-0.0148, Scale Factor = 21.7469+-0.4854, Alpha = 1.2706+-0.029
# -------------------------------------------------------------
Energy	Counts	Errors	Combined Fit	Fit 1	Fit 2(incl. prev.)
10.660000	1.920000	0.459286	0.012801	0.002801	0.012801
10.670000	0.000000	0.000000	0.012801	0.002801	0.012801
10.680000	0.000000	0.000000	0.012801	0.002801	0.012801
10.690000	0.000000	0.000000	0.012801	0.002801	0.012801
10.700000	0.240000	0.235151	0.012801	0.002801	0.012801
10.710000	0.080000	0.078384	0.012801	0.002801	0.012801
10.720000	0.080000	0.078384	0.012801	0.002801	0.012801
10.730000	0.000000	0.000000	0.012801	0.002801	0.012801
10.740000	0.160000	0.156767	0.012801	0.002801	0.012801
10.750000	0.000000	0.000000	0.012801	0.002801	0.012801
10.760000	0.160000	0.156767	0.012801	0.002801	0.012801
10.770000	0.000000	0.000000	0.012801	0.002801	0.012801
10.780000	0.000000	0.000000	0.012801	0.002801	0.012801
10.790000	0.000000	0.000000	0.012801	0.002801	0.012801
10.800000	0.000000	0.000000	0.012801	0.002801	0.012801
10.810000	0.160000	0.108517	0.012801	0.002801	0.012801
10.820000	0.000000	0.000000	0.012801	0.002801	0.012801
10.830000	0.080000	0.078384	0.012801	0.002801	0.012801
10.840000	0.000000	0.000000	0.012801	0.002801	0.012801
10.850000	0.000000	0.000000	0.012801	0.002801	0.012801
10.860000	0.000000	0.000000	0.012801	0.002801	0.012801
10.870000	0.080000	0.078384	0.012801	0.002801	0.012801
10.880000	0.000000	0.000000	0.012801	0.002801	0.012801
10.890000	0.080000	0.078384	0.012801	0.002801	0.012801
10.900000	0.000000	0.000000	0.012801	0.002801	0.012801
10.910000	0.000000	0.000000	0.012801	0.002801	0.012801
10.920000	0.000000	0.000000	0.012801	0.002801	0.012801
10.930000	0.080000	0.078384	0.012801	0.002801	0.012801
10.940000	0.000000	0.000000	0.012801	0.002801	0.012801
10.950000	0.000000	0.000000	0.012801	0.002801	0.012801
10.960000	0.000000	0.000000	0.012801	0.002801	0.012801
10.970000	0.000000	0.000000	0.012801	0.002801	0.012801
10.980000	0.000000	0.000000	0.012801	0.002801	0.012801
10.990000	0.000000	0.000000	0.012801	0.002801	0.012801
11.000000	0.000000	0.000000	0.012801	0.002801	0.012801
11.010000	0.000000	0.000000	0.012801	0.002801	0.012801
11.020000	0.000000	0.000000	0.012801	0.002801	0.012801
11.030000	0.000000	0.000000	0.012801	0.002801	0.012801
11.040000	0.000000	0.000000	0.012801	0.002801	0.012801
11.050000	0.000000	0.000000	0.012801	0.002801	0.012801
11.060000	0.080000	0.078384	0.012801	0.002801	0.012801
11.070000	0.240000	0.235151	0.012801	0.002801	0.012801
11.080000	0.000000	0.000000	0.012801	0.002801	0.012801
11.090000	0.000000	0.000000	0.012801	0.002801	0.012801
11.100000	0.080000	0.078384	0.012801	0.002801	0.012801
11.110000	0.160000	0.156767	0.012801	0.002801	0.012801
11.120000	0.240000	0.172325	0.012801	0.002801	0.012801
11.130000	0.160000	0.156767	0.012801	0.002801	0.012801
11.140000	0.000000	0.000000	0.012801	0.002801	0.012801
11.150000	0.000000	0.000000	0.012801	0.002801	0.012801
11.160000	0.240000	0.172325	0.012801	0.002801	0.012801
11.170000	0.080000	0.078384	0.012801	0.002801	0.012801
11.180000	0.000000	0.000000	0.012801	0.002801	0.012801
11.190000	0.080000	0.078384	0.012801	0.002801	0.012801
11.200000	0.160000	0.156767	0.012801	0.002801	0.012801
11.210000	0.080000	0.078384	0.012801	0.002801	0.012801
11.220000	0.080000	0.078384	0.012801	0.002801	0.012801
11.230000	0.000000	0.000000	0.012801	0.002801	0.012801
11.240000	0.080000	0.078384	0.012801	0.002801	0.012801
11.250000	0.320000	0.217035	0.012801	0.002801	0.012801
11.260000	0.080000	0.078384	0.012801	0.002801	0.012801
11.270000	0.160000	0.108517	0.012801	0.002801	0.012801
11.280000	0.000000	0.000000	0.012801	0.002801	0.012801
11.290000	0.000000	0.000000	0.012801	0.002801	0.012801
11.300000	0.000000	0.000000	0.012801	0.002801	0.012801
11.310000	0.080000	0.078384	0.012801	0.002801	0.012801
11.320000	0.080000	0.078384	0.012801	0.002801	0.012801
11.330000	0.000000	0.000000	0.012801	0.002801	0.012801
11.340000	0.000000	0.000000	0.012801	0.002801	0.012801
11.350000	0.080000	0.078384	0.012801	0.002801	0.012801
11.360000	0.000000	0.000000	0.012801	0.002801	0.012801
11.370000	0.160000	0.156767	0.012801	0.002801	0.012801
11.380000	0.000000	0.000000	0.012801	0.002801	0.012801
11.390000	0.080000	0.078384	0.012801	0.002801	0.012801
11.400000	0.240000	0.129985	0.012801	0.002801	0.012801
11.410000	0.000000	0.000000	0.012801	0.002801	0.012801
11.420000	0.000000	0.000000	0.012801	0.002801	0.012801
11.430000	0.000000	0.000000	0.012801	0.002801	0.012801
11.440000	0.000000	0.000000	0.012801	0.002801	0.012801
11.450000	0.000000	0.000000	0.012801	0.002801	0.012801
11.460000	0.080000	0.078384	0.012801	0.002801	0.012801
11.470000	0.000000	0.000000	0.012801	0.002801	0.012801
11.480000	0.080000	0.078384	0.012801	0.002801	0.012801
11.490000	0.000000	0.000000	0.012801	0.002801	0.012801
11.500000	0.080000	0.078384	0.012801	0.002801	0.012801
11.510000	0.000000	0.000000	0.012801	0.002801	0.012801
11.520000	0.080000	0.078384	0.012801	0.002801	0.012801
11.530000	0.240000	0.172325	0.012801	0.002801	0.012801
11.540000	0.160000	0.108517	0.012801	0.002801	0.012801
11.550000	0.160000	0.108517	0.012801	0.002801	0.012801
11.560000	0.000000	0.000000	0.012801	0.002801	0.012801
11.570000	0.000000	0.000000	0.012801	0.002801	0.012801
11.580000	0.160000	0.156767	0.012801	0.002801	0.012801
11.590000	0.000000	0.000000	0.012801	0.002801	0.012801
11.600000	0.160000	0.108517	0.012801	0.002801	0.012801
11.610000	0.000000	0.000000	0.012801	0.002801	0.012801
11.620000	0.160000	0.108517	0.012801	0.002801	0.012801
11.630000	0.160000	0.108517	0.012801	0.002801	0.012801
11.640000	0.080000	0.078384	0.012801	0.002801	0.012801
11.650000	0.000000	0.000000	0.012801	0.002801	0.012801
11.660000	0.080000	0.078384	0.012801	0.002801	0.012801
11.670000	0.320000	0.185213	0.012801	0.002801	0.012801
11.680000	0.080000	0.078384	0.012801	0.002801	0.012801
11.690000	0.000000	0.000000	0.012801	0.002801	0.012801
11.700000	0.000000	0.000000	0.012801	0.002801	0.012801
11.710000	0.000000	0.000000	0.012801	0.002801	0.012801
11.720000	0.000000	0.000000	0.012801	0.002801	0.012801
11.730000	0.480000	0.283521	0.012801	0.002801	0.012801
11.740000	0.000000	0.000000	0.012801	0.002801	0.012801
11.750000	0.240000	0.172325	0.012801	0.002801	0.012801
11.760000	0.000000	0.000000	0.012801	0.002801	0.012801
11.770000	0.080000	0.078384	0.012801	0.002801	0.012801
11.780000	0.080000	0.078384	0.012801	0.002801	0.012801
11.790000	0.160000	0.108517	0.012801	0.002801	0.012801
11.800000	0.000000	0.000000	0.012801	0.002801	0.012801
11.810000	0.080000	0.078384	0.012801	0.002801	0.012801
11.820000	0.000000	0.000000	0.012801	0.002801	0.012801
11.830000	0.080000	0.078384	0.012801	0.002801	0.012801
11.840000	0.080000	0.078384	0.012801	0.002801	0.012801
11.850000	0.000000	0.000000	0.012801	0.002801	0.012801
11.860000	0.240000	0.129985	0.012801	0.002801	0.012801
11.870000	0.320000	0.244753	0.012801	0.002801	0.012801
11.880000	0.320000	0.185213	0.012801	0.002801	0.012801
11.890000	0.000000	0.000000	0.012801	0.002801	0.012801
11.900000	0.000000	0.000000	0.012801	0.002801	0.012801
11.910000	0.000000	0.000000	0.012801	0.002801	0.012801
11.920000	0.160000	0.156767	0.012801	0.002801	0.012801
11.930000	0.000000	0.000000	0.012801	0.002801	0.012801
11.940000	0.080000	0.078384	0.012801	0.002801	0.012801
11.950000	0.400000	0.252982	0.012801	0.002801	0.012801
11.960000	0.080000	0.078384	0.012801	0.002801	0.012801
11.970000	0.480000	0.234060	0.012801	0.002801	0.012801
11.980000	0.000000	0.000000	0.012801	0.002801	0.012801
11.990000	0.160000	0.108517	0.012801	0.002801	0.012801
12.000000	0.000000	0.000000	0.012801	0.002801	0.012801
12.010000	0.240000	0.172325	0.012801	0.002801	0.012801
12.020000	0.000000	0.000000	0.012801	0.002801	0.012801
12.030000	0.240000	0.172325	0.012801	0.002801	0.012801
12.040000	0.320000	0.185213	0.012801	0.002801	0.012801
12.050000	0.080000	0.078384	0.012801	0.002801	0.012801
12.060000	0.000000	0.000000	0.012801	0.002801	0.012801
12.070000	0.080000	0.078384	0.012801	0.002801	0.012801
12.080000	0.240000	0.129985	0.012801	0.002801	0.012801
12.090000	0.160000	0.108517	0.012801	0.002801	0.012801
12.100000	0.000000	0.000000	0.012801	0.002801	0.012801
12.110000	0.000000	0.000000	0.012801	0.002801	0.012801
12.120000	0.240000	0.172325	0.012801	0.002801	0.012801
12.130000	0.160000	0.156767	0.012801	0.002801	0.012801
12.140000	0.000000	0.000000	0.012801	0.002801	0.012801
12.150000	0.000000	0.000000	0.012801	0.002801	0.012801
12.160000	0.080000	0.078384	0.012801	0.002801	0.012801
12.170000	0.240000	0.172325	0.012801	0.002801	0.012801
12.180000	0.160000	0.156767	0.012801	0.002801	0.012801
12.190000	0.400000	0.277128	0.012801	0.002801	0.012801
12.200000	0.000000	0.000000	0.012801	0.002801	0.012801
12.210000	0.240000	0.172325	0.012801	0.002801	0.012801
12.220000	0.080000	0.078384	0.012801	0.002801	0.012801
12.230000	0.160000	0.108517	0.012801	0.002801	0.012801
12.240000	0.160000	0.156767	0.012801	0.002801	0.012801
12.250000	0.240000	0.172325	0.012801	0.002801	0.012801
12.260000	0.400000	0.160000	0.012801	0.002801	0.012801
12.270000	0.080000	0.078384	0.012801	0.002801	0.012801
12.280000	0.080000	0.078384	0.012801	0.002801	0.012801
12.290000	0.240000	0.235151	0.012801	0.002801	0.012801
12.300000	0.080000	0.078384	0.012801	0.002801	0.012801
12.310000	0.160000	0.108517	0.012801	0.002801	0.012801
12.320000	0.080000	0.078384	0.012801	0.002801	0.012801
12.330000	0.000000	0.000000	0.012801	0.002801	0.012801
12.340000	0.000000	0.000000	0.012801	0.002801	0.012801
12.350000	0.000000	0.000000	0.012801	0.002801	0.012801
12.360000	0.240000	0.172325	0.012801	0.002801	0.012801
12.370000	0.160000	0.156767	0.012801	0.002801	0.012801
12.380000	0.000000	0.000000	0.012801	0.002801	0.012801
12.390000	0.160000	0.156767	0.012801	0.002801	0.012801
12.400000	0.000000	0.000000	0.012801	0.002801	0.012801
12.410000	0.080000	0.078384	0.012801	0.002801	0.012801
12.420000	0.160000	0.108517	0.012801	0.002801	0.012801
12.430000	0.000000	0.000000	0.012801	0.002801	0.012801
12.440000	0.080000	0.078384	0.012801	0.002801	0.012801
12.450000	0.080000	0.078384	0.012801	0.002801	0.012801
12.460000	0.240000	0.172325	0.012801	0.002801	0.012801
12.470000	0.080000	0.078384	0.012801	0.002801	0.012801
12.480000	0.240000	0.129985	0.012801	0.002801	0.012801
12.490000	0.160000	0.108517	0.012802	0.002802	0.012802
12.500000	0.480000	0.234060	0.012802	0.002802	0.012802
12.510000	0.160000	0.108517	0.012802	0.002802	0.012802
12.520000	0.240000	0.172325	0.012803	0.002803	0.012803
12.530000	0.080000	0.078384	0.012803	0.002803	0.012803
12.540000	0.160000	0.108517	0.012804	0.002804	0.012804
12.550000	0.320000	0.185213	0.012805	0.002805	0.012805
12.560000	0.080000	0.078384	0.012807	0.002807	0.012807
12.570000	0.240000	0.172325	0.012809	0.002809	0.012809
12.580000	0.400000	0.195959	0.012811	0.002811	0.012811
12.590000	0.320000	0.244753	0.012815	0.002815	0.012815
12.600000	0.160000	0.108517	0.012819	0.002819	0.012819
12.610000	0.160000	0.108517	0.012824	0.002824	0.012824
12.620000	0.240000	0.172325	0.012830	0.002830	0.012830
12.630000	0.000000	0.000000	0.012839	0.002839	0.012839
12.640000	0.240000	0.172325	0.012849	0.002849	0.012849
12.650000	0.480000	0.234060	0.012862	0.002862	0.012862
12.660000	0.080000	0.078384	0.012878	0.002878	0.012878
12.670000	0.640000	0.352727	0.012897	0.002897	0.012897
12.680000	0.480000	0.204900	0.012921	0.002921	0.012921
12.690000	0.160000	0.156767	0.012950	0.002950	0.012950
12.700000	0.080000	0.078384	0.012985	0.002985	0.012985
12.710000	0.080000	0.078384	0.013028	0.003028	0.013028
12.720000	0.080000	0.078384	0.013079	0.003079	0.013079
12.730000	0.320000	0.185213	0.013140	0.003140	0.013140
12.740000	0.160000	0.156767	0.013212	0.003212	0.013212
12.750000	0.160000	0.156767	0.013298	0.003298	0.013298
12.760000	0.240000	0.235151	0.013399	0.003399	0.013399
12.770000	0.000000	0.000000	0.013518	0.003518	0.013518
12.780000	0.400000	0.195959	0.013656	0.003656	0.013656
12.790000	0.320000	0.146642	0.013816	0.003816	0.013816
12.800000	0.480000	0.283521	0.014002	0.004002	0.014002
12.810000	0.080000	0.078384	0.014215	0.004215	0.014215
12.820000	0.320000	0.146642	0.014460	0.004460	0.014460
12.830000	0.320000	0.185213	0.014739	0.004739	0.014739
12.840000	0.400000	0.195959	0.015056	0.005056	0.015056
12.850000	0.240000	0.129985	0.015415	0.005415	0.015415
12.860000	0.240000	0.129985	0.015820	0.005820	0.015820
12.870000	0.320000	0.146642	0.016274	0.006274	0.016274
12.880000	0.480000	0.204900	0.016782	0.006782	0.016782
12.890000	0.160000	0.156767	0.017347	0.007347	0.017347
12.900000	0.400000	0.226274	0.017975	0.007975	0.017975
12.910000	0.160000	0.156767	0.018668	0.008668	0.018668
12.920000	0.400000	0.195959	0.019432	0.009432	0.019432
12.930000	0.000000	0.000000	0.020270	0.010270	0.020270
12.940000	0.400000	0.160000	0.021187	0.011187	0.021187
12.950000	0.560000	0.265812	0.022187	0.012187	0.022187
12.960000	0.240000	0.172325	0.023273	0.013273	0.023273
12.970000	0.080000	0.078384	0.024449	0.014449	0.024449
12.980000	0.240000	0.172325	0.025719	0.015719	0.025719
12.990000	0.320000	0.244753	0.027086	0.017086	0.027086
13.000000	0.320000	0.185213	0.028554	0.018554	0.028554
13.010000	0.400000	0.195959	0.030125	0.020125	0.030125
13.020000	0.240000	0.172325	0.031803	0.021803	0.031803
13.030000	0.640000	0.245797	0.033589	0.023589	0.033589
13.040000	0.240000	0.172325	0.035487	0.025487	0.035487
13.050000	0.320000	0.244753	0.037497	0.027497	0.037497
13.060000	0.080000	0.078384	0.039623	0.029623	0.039623
13.070000	0.160000	0.156767	0.041866	0.031866	0.041866
13.080000	0.000000	0.000000	0.044226	0.034226	0.044226
13.090000	0.640000	0.270585	0.046706	0.036706	0.046706
13.100000	0.720000	0.296756	0.049307	0.039307	0.049307
13.110000	0.720000	0.296756	0.052029	0.042029	0.052029
13.120000	0.240000	0.172325	0.054873	0.044873	0.054873
13.130000	0.160000	0.156767	0.057839	0.047839	0.057839
13.140000	0.960000	0.322391	0.060929	0.050929	0.060929
13.150000	0.240000	0.172325	0.064141	0.054141	0.064141
13.160000	0.800000	0.339411	0.067477	0.057477	0.067477
13.170000	0.560000	0.240533	0.070936	0.060936	0.070936
13.180000	0.640000	0.270585	0.074519	0.064519	0.074519
13.190000	0.240000	0.172325	0.078225	0.068225	0.078225
13.200000	0.320000	0.185213	0.082054	0.072054	0.082054
13.210000	0.560000	0.240533	0.086007	0.076007	0.086007
13.220000	0.160000	0.108517	0.090082	0.080082	0.090082
13.230000	0.320000	0.185213	0.094279	0.084279	0.094279
13.240000	0.480000	0.204900	0.098599	0.088599	0.098599
13.250000	0.400000	0.226274	0.103040	0.093040	0.103040
13.260000	0.640000	0.293285	0.107603	0.097603	0.107603
13.270000	0.480000	0.259969	0.112287	0.102287	0.112287
13.280000	0.160000	0.156767	0.117092	0.107092	0.117092
13.290000	0.160000	0.156767	0.122018	0.112018	0.122018
13.300000	0.560000	0.240533	0.127064	0.117064	0.127064
13.310000	0.960000	0.359911	0.132229	0.122229	0.132229
13.320000	0.160000	0.108517	0.137514	0.127514	0.137514
13.330000	0.400000	0.195959	0.142918	0.132918	0.142918
13.340000	0.960000	0.341667	0.148441	0.138441	0.148441
13.350000	0.480000	0.204900	0.154082	0.144082	0.154082
13.360000	0.320000	0.146642	0.159841	0.149841	0.159841
13.370000	0.560000	0.240533	0.165718	0.155718	0.165718
13.380000	0.400000	0.195959	0.171713	0.161713	0.171713
13.390000	0.400000	0.195959	0.177825	0.167825	0.177825
13.400000	0.480000	0.259969	0.184054	0.174054	0.184054
13.410000	0.480000	0.204900	0.190400	0.180400	0.190400
13.420000	0.640000	0.218211	0.196862	0.186862	0.196862
13.430000	0.800000	0.375233	0.203440	0.193440	0.203440
13.440000	0.320000	0.146642	0.210133	0.200133	0.210133
13.450000	0.880000	0.439345	0.216943	0.206943	0.216943
13.460000	0.080000	0.078384	0.223868	0.213868	0.223868
13.470000	0.240000	0.172325	0.230908	0.220908	0.230908
13.480000	0.640000	0.270585	0.238063	0.228063	0.238063
13.490000	0.320000	0.185213	0.245332	0.235332	0.245332
13.500000	0.240000	0.172325	0.252716	0.242716	0.252716
13.510000	0.080000	0.078384	0.260215	0.250215	0.260215
13.520000	0.240000	0.172325	0.267827	0.257827	0.267827
13.530000	0.400000	0.195959	0.275553	0.265553	0.275553
13.540000	0.320000	0.185213	0.283392	0.273392	0.283392
13.550000	0.640000	0.293285	0.291345	0.281345	0.291345
13.560000	0.880000	0.424528	0.299411	0.289411	0.299411
13.570000	0.560000	0.240533	0.307590	0.297590	0.307590
13.580000	0.480000	0.234060	0.315882	0.305882	0.315882
13.590000	0.640000	0.270585	0.324286	0.314286	0.324286
13.600000	0.240000	0.172325	0.332803	0.322803	0.332803
13.610000	0.320000	0.146642	0.341432	0.331432	0.341432
13.620000	0.240000	0.172325	0.350173	0.340173	0.350173
13.630000	0.880000	0.278970	0.359026	0.349026	0.359026
13.640000	0.400000	0.320000	0.367991	0.357991	0.367991
13.650000	0.480000	0.234060	0.377067	0.367067	0.377067
13.660000	0.800000	0.277128	0.386254	0.376254	0.386254
13.670000	0.560000	0.240533	0.395553	0.385553	0.395553
13.680000	0.320000	0.185213	0.404963	0.394963	0.404963
13.690000	0.400000	0.226274	0.414483	0.404483	0.414483
13.700000	0.160000	0.108517	0.424115	0.414115	0.424115
13.710000	0.720000	0.317591	0.433856	0.423856	0.433856
13.720000	0.320000	0.146642	0.443709	0.433709	0.443709
13.730000	0.320000	0.244753	0.453671	0.443671	0.453671
13.740000	0.960000	0.279886	0.463744	0.453744	0.463744
13.750000	0.800000	0.277128	0.473927	0.463927	0.473927
13.760000	0.640000	0.245797	0.484219	0.474219	0.484219
13.770000	1.120000	0.424528	0.494621	0.484621	0.494621
13.780000	0.400000	0.195959	0.505133	0.495133	0.505133
13.790000	0.960000	0.359911	0.515754	0.505754	0.515754
13.800000	0.960000	0.322391	0.526484	0.516484	0.526484
13.810000	0.560000	0.212264	0.537324	0.527324	0.537324
13.820000	0.720000	0.296756	0.548272	0.538272	0.548272
13.830000	0.320000	0.185213	0.559330	0.549330	0.559330
13.840000	1.440000	0.473557	0.570496	0.560496	0.570496
13.850000	0.640000	0.218211	0.581770	0.571770	0.581770
13.860000	0.560000	0.265812	0.593154	0.583154	0.593154
13.870000	0.480000	0.204900	0.604645	0.594645	0.604645
13.880000	0.880000	0.340916	0.616245	0.606245	0.616245
13.890000	0.400000	0.195959	0.627953	0.617953	0.627953
13.900000	0.400000	0.226274	0.639769	0.629769	0.639769
13.910000	0.480000	0.170833	0.651693	0.641693	0.651693
13.920000	0.560000	0.212264	0.663724	0.653724	0.663724
13.930000	0.800000	0.277128	0.675864	0.665864	0.675864
13.940000	0.800000	0.277128	0.688110	0.678110	0.688110
13.950000	0.800000	0.252982	0.700464	0.690464	0.700464
13.960000	0.400000	0.195959	0.712926	0.702926	0.712926
13.970000	0.800000	0.299333	0.725495	0.715495	0.725495
13.980000	1.200000	0.423320	0.738170	0.728170	0.738170
13.990000	0.880000	0.340916	0.750953	0.740953	0.750953
14.000000	1.200000	0.391918	0.763843	0.753843	0.763843
14.010000	0.560000	0.240533	0.776839	0.766839	0.776839
14.020000	0.240000	0.172325	0.789942	0.779942	0.789942
14.030000	0.880000	0.278970	0.803152	0.793152	0.803152
14.040000	0.640000	0.245797	0.816468	0.806468	0.816468
14.050000	0.560000	0.240533	0.829891	0.819891	0.829891
14.060000	1.200000	0.505964	0.843419	0.833419	0.843419
14.070000	1.440000	0.416000	0.857054	0.847054	0.857054
14.080000	1.040000	0.322391	0.870795	0.860795	0.870795
14.090000	1.360000	0.462619	0.884642	0.874642	0.884642
14.100000	0.480000	0.170833	0.898595	0.888595	0.898595
14.110000	1.600000	0.375233	0.912653	0.902653	0.912653
14.120000	0.560000	0.240533	0.926817	0.916817	0.926817
14.130000	0.640000	0.270585	0.941087	0.931087	0.941087
14.140000	0.560000	0.212264	0.955462	0.945462	0.955462
14.150000	0.960000	0.409800	0.969943	0.959943	0.969943
14.160000	0.880000	0.278970	0.984529	0.974529	0.984529
14.170000	1.280000	0.373181	0.999220	0.989220	0.999220
14.180000	0.720000	0.317591	1.014016	1.004016	1.014016
14.190000	2.000000	0.629921	1.028918	1.018918	1.028918
14.200000	1.200000	0.466476	1.043924	1.033924	1.043924
14.210000	1.120000	0.376595	1.059035	1.049035	1.059035
14.220000	1.680000	0.402870	1.074251	1.064251	1.074251
14.230000	1.120000	0.359199	1.089571	1.079571	1.089571
14.240000	0.640000	0.293285	1.104997	1.094997	1.104997
14.250000	1.040000	0.359911	1.120526	1.110526	1.120526
14.260000	0.640000	0.245797	1.136160	1.126160	1.136160
14.270000	1.280000	0.355618	1.151899	1.141899	1.151899
14.280000	2.480000	0.442249	1.167741	1.157741	1.167741
14.290000	1.680000	0.448000	1.183688	1.173688	1.183688
14.300000	1.760000	0.643192	1.199739	1.189739	1.199739
14.310000	1.120000	0.439345	1.215894	1.205894	1.215894
14.320000	1.680000	0.488983	1.232153	1.222153	1.232153
14.330000	1.120000	0.278970	1.248516	1.238516	1.248516
14.340000	2.080000	0.430516	1.264983	1.254983	1.264983
14.350000	1.200000	0.339411	1.281553	1.271553	1.281553
14.360000	1.360000	0.462619	1.298227	1.288227	1.298227
14.370000	1.760000	0.534505	1.315004	1.305004	1.315004
14.380000	1.280000	0.421502	1.331885	1.321885	1.331885
14.390000	1.680000	0.369735	1.348870	1.338870	1.348870
14.400000	2.320000	0.721598	1.365957	1.355957	1.365957
14.410000	1.760000	0.484248	1.383148	1.373148	1.383148
14.420000	1.840000	0.390610	1.400442	1.390442	1.400442
14.430000	1.920000	0.415384	1.417840	1.407840	1.417840
14.440000	1.440000	0.384000	1.435340	1.425340	1.435340
14.450000	2.240000	0.569294	1.452943	1.442943	1.452943
14.460000	1.600000	0.375233	1.470649	1.460649	1.470649
14.470000	1.280000	0.317591	1.488458	1.478458	1.488458
14.480000	1.600000	0.391918	1.506370	1.496370	1.506370
14.490000	2.000000	0.598665	1.524384	1.514384	1.524384
14.500000	2.000000	0.466476	1.542501	1.532501	1.542501
14.510000	1.200000	0.357771	1.560721	1.550721	1.560721
14.520000	1.520000	0.362745	1.579042	1.569042	1.579042
14.530000	1.200000	0.299333	1.597467	1.587467	1.597467
14.540000	1.200000	0.357771	1.615994	1.605994	1.615994
14.550000	1.680000	0.433479	1.634623	1.624623	1.634623
14.560000	1.680000	0.418454	1.653354	1.643354	1.653354
14.570000	2.160000	0.504951	1.672187	1.662187	1.672187
14.580000	3.040000	0.578218	1.691122	1.681122	1.691122
14.590000	1.600000	0.407922	1.710160	1.700160	1.710160
14.600000	2.000000	0.466476	1.729299	1.719299	1.729299
14.610000	1.680000	0.369735	1.748540	1.738540	1.748540
14.620000	2.480000	0.642794	1.767883	1.757883	1.767883
14.630000	2.560000	0.524839	1.787328	1.777328	1.787328
14.640000	2.560000	0.459843	1.806875	1.796875	1.806875
14.650000	2.400000	0.493153	1.826523	1.816523	1.826523
14.660000	2.160000	0.478932	1.846272	1.836272	1.846272
14.670000	1.680000	0.313535	1.866123	1.856123	1.866123
14.680000	2.560000	0.683708	1.886076	1.876076	1.886076
14.690000	1.200000	0.357771	1.906130	1.896130	1.906130
14.700000	3.440000	0.872844	1.926285	1.916285	1.926285
14.710000	1.520000	0.396464	1.946542	1.936542	1.946542
14.720000	2.080000	0.430516	1.966899	1.956899	1.966899
14.730000	2.480000	0.534026	1.987358	1.977358	1.987358
14.740000	1.680000	0.352000	2.007918	1.997918	2.007918
14.750000	2.080000	0.536418	2.028579	2.018579	2.028579
14.760000	1.840000	0.608421	2.049341	2.039341	2.049341
14.770000	1.920000	0.459286	2.070204	2.060204	2.070204
14.780000	2.000000	0.407922	2.091167	2.081167	2.091167
14.790000	3.360000	0.694850	2.112232	2.102232	2.112232
14.800000	2.400000	0.466476	2.133397	2.123397	2.133397
14.810000	2.000000	0.438178	2.154662	2.144662	2.154662
14.820000	2.400000	0.505964	2.176029	2.166029	2.176029
14.830000	2.320000	0.562053	2.197496	2.187496	2.197496
14.840000	2.560000	0.524839	2.219063	2.209063	2.219063
14.850000	1.680000	0.573327	2.240731	2.230731	2.240731
14.860000	2.880000	0.566590	2.262500	2.252500	2.262500
14.870000	2.960000	0.555640	2.284368	2.274368	2.284368
14.880000	3.040000	0.599947	2.306337	2.296337	2.306337
14.890000	2.400000	0.565685	2.328406	2.318406	2.328406
14.900000	2.400000	0.480000	2.350576	2.340576	2.350576
14.910000	3.040000	0.610521	2.372845	2.362845	2.372845
14.920000	3.600000	0.493153	2.395215	2.385215	2.395215
14.930000	3.680000	0.584383	2.417684	2.407684	2.417684
14.940000	2.560000	0.604199	2.440254	2.430254	2.440254
14.950000	2.800000	0.565685	2.462923	2.452923	2.462923
14.960000	2.480000	0.601651	2.485693	2.475692	2.485693
14.970000	4.240000	0.786445	2.508562	2.498561	2.508562
14.980000	4.080000	0.624615	2.531532	2.521530	2.531532
14.990000	3.680000	0.703636	2.554601	2.544599	2.554601
15.000000	3.040000	0.698524	2.577771	2.567767	2.577771
15.010000	3.600000	0.715542	2.601040	2.591034	2.601040
15.020000	4.400000	0.876356	2.624410	2.614402	2.624410
15.030000	3.040000	0.651104	2.647881	2.637869	2.647881
15.040000	2.720000	0.564326	2.671452	2.661435	2.671452
15.050000	3.760000	0.672381	2.695125	2.685100	2.695125
15.060000	3.920000	0.754549	2.718900	2.708865	2.718900
15.070000	3.440000	0.536895	2.742779	2.732730	2.742779
15.080000	4.480000	0.825823	2.766762	2.756693	2.766762
15.090000	3.120000	0.577775	2.790852	2.780756	2.790852
15.100000	3.280000	0.668180	2.815050	2.804918	2.815050
15.110000	4.080000	0.842700	2.839361	2.829179	2.839361
15.120000	3.360000	0.462619	2.863788	2.853539	2.863788
15.130000	3.040000	0.494708	2.888337	2.877998	2.888337
15.140000	3.840000	0.791313	2.913016	2.902556	2.913016
15.150000	4.240000	0.727252	2.937832	2.927213	2.937832
15.160000	3.200000	0.576888	2.962798	2.951969	2.962798
15.170000	3.360000	0.551014	2.987928	2.976824	2.987928
15.180000	4.080000	0.644782	3.013240	3.001777	3.013240
15.190000	5.040000	0.679953	3.038757	3.026829	3.038757
15.200000	3.920000	0.771326	3.064508	3.051980	3.064508
15.210000	4.880000	0.698158	3.090526	3.077230	3.090526
15.220000	3.600000	0.629921	3.116854	3.102578	3.116854
15.230000	3.840000	0.649135	3.143543	3.128024	3.143543
15.240000	3.600000	0.587878	3.170654	3.153570	3.170654
15.250000	4.160000	0.830768	3.198262	3.179213	3.198262
15.260000	4.880000	1.043563	3.226452	3.204955	3.226452
15.270000	4.240000	0.761640	3.255329	3.230795	3.255329
15.280000	4.320000	0.550549	3.285013	3.256734	3.285013
15.290000	4.880000	0.808594	3.315646	3.282771	3.315646
15.300000	5.600000	0.992774	3.347388	3.308906	3.347388
15.310000	4.640000	0.773315	3.380426	3.335140	3.380426
15.320000	4.080000	0.603775	3.414974	3.361471	3.414974
15.330000	4.720000	0.552869	3.451270	3.387901	3.451270
15.340000	3.520000	0.483719	3.489585	3.414429	3.489585
15.350000	4.880000	0.588748	3.530219	3.441054	3.530219
15.360000	4.000000	0.783837	3.573505	3.467778	3.573505
15.370000	5.440000	0.674282	3.619809	3.494600	3.619809
15.380000	3.840000	0.608421	3.669528	3.521519	3.669528
15.390000	5.200000	0.897998	3.723093	3.548537	3.723093
15.400000	5.520000	0.557480	3.780968	3.575652	3.780968
15.410000	5.120000	0.947114	3.843643	3.602865	3.843643
15.420000	4.800000	0.979796	3.911638	3.630175	3.911638
15.430000	5.680000	0.895714	3.985497	3.657584	3.985497
15.440000	4.880000	0.610102	4.065785	3.685090	4.065785
15.450000	3.360000	0.656975	4.153081	3.712693	4.153081
15.460000	3.520000	0.470302	4.247976	3.740395	4.247976
15.470000	5.360000	0.764994	4.351066	3.768193	4.351066
15.480000	5.920000	0.779579	4.462946	3.796089	4.462946
15.490000	5.520000	0.662408	4.584203	3.824083	4.584203
15.500000	4.960000	0.742924	4.715408	3.852174	4.715408
15.510000	5.200000	0.706541	4.857114	3.880362	4.857114
15.520000	5.280000	0.814901	5.009843	3.908648	5.009843
15.530000	6.080000	0.850261	5.174082	3.937031	5.174082
15.540000	6.640000	0.836909	5.350280	3.965511	5.350280
15.550000	5.360000	0.647160	5.538836	3.994089	5.538836
15.560000	6.480000	1.026248	5.740101	4.022763	5.740101
15.570000	6.480000	0.892852	5.954369	4.051535	5.954369
15.580000	6.640000	0.866958	6.181875	4.080404	6.181875
15.590000	7.920000	0.915502	6.422794	4.109370	6.422794
15.600000	6.080000	0.857755	6.677240	4.138432	6.677240
15.610000	6.720000	1.023750	6.945262	4.167592	6.945262
15.620000	7.680000	0.909892	7.226852	4.196849	7.226852
15.630000	8.160000	0.875772	7.521941	4.226202	7.521941
15.640000	9.360000	1.370407	7.830402	4.255653	7.830402
15.650000	6.240000	0.981884	8.152060	4.285200	8.152060
15.660000	8.800000	0.912140	8.486687	4.314844	8.486687
15.670000	8.560000	1.088235	8.834013	4.344585	8.834013
15.680000	8.880000	0.776289	9.193733	4.374423	9.193733
15.690000	8.480000	0.899991	9.565505	4.404357	9.565505
15.700000	10.640000	1.303386	9.948964	4.434388	9.948964
15.710000	11.600000	1.234180	10.343721	4.464515	10.343721
15.720000	10.720000	0.860735	10.749375	4.494739	10.749375
15.730000	11.360000	1.232727	11.165514	4.525059	11.165514
15.740000	12.320000	1.184865	11.591719	4.555476	11.591719
15.750000	10.160000	1.207550	12.027575	4.585990	12.027575
15.760000	10.640000	1.053573	12.472668	4.616600	12.472668
15.770000	12.720000	0.897142	12.926594	4.647306	12.926594
15.780000	12.800000	1.294913	13.388957	4.678108	13.388957
15.790000	15.280000	1.417062	13.859379	4.709007	13.859379
15.800000	13.600000	1.603995	14.337493	4.740002	14.337493
15.810000	13.600000	1.280000	14.822953	4.771094	14.822953
15.820000	14.800000	1.651181	15.315429	4.802281	15.315429
15.830000	18.800000	1.274990	15.814611	4.833565	15.814611
15.840000	15.600000	1.367041	16.320207	4.864945	16.320207
15.850000	16.560000	1.397232	16.831946	4.896421	16.831946
15.860000	17.040000	1.012688	17.349574	4.927993	17.349574
15.870000	18.400000	1.496663	17.872856	4.959661	17.872856
15.880000	20.080000	1.450980	18.401575	4.991425	18.401575
15.890000	18.960000	1.731108	18.935528	5.023285	18.935528
15.900000	17.520000	1.261263	19.474531	5.055241	19.474531
15.910000	17.520000	1.539995	20.018412	5.087292	20.018412
15.920000	20.400000	1.466424	20.567013	5.119440	20.567013
15.930000	21.680000	1.586664	21.120188	5.151683	21.120188
15.940000	21.200000	1.403994	21.677803	5.184023	21.677803
15.950000	20.480000	2.105323	22.239733	5.216458	22.239733
15.960000	22.960000	1.436084	22.805864	5.248988	22.805864
15.970000	22.160000	1.555049	23.376090	5.281615	23.376090
15.980000	23.200000	1.685705	23.950310	5.314337	23.950310
15.990000	23.760000	1.409999	24.528434	5.347155	24.528434
16.000000	27.120000	1.689800	25.110375	5.380068	25.110375
16.010000	22.880000	1.855862	25.696052	5.413077	25.696052
16.020000	23.680000	1.618612	26.285390	5.446181	26.285390
16.030000	23.680000	1.425168	26.878318	5.479381	26.878318
16.040000	24.080000	1.725034	27.474769	5.512676	27.474769
16.050000	31.280000	1.662307	28.074680	5.546067	28.074680
16.060000	28.960000	1.555871	28.677989	5.579553	28.677989
16.070000	27.440000	1.871111	29.284641	5.613134	29.284641
16.080000	31.360000	1.744367	29.894581	5.646811	29.894581
16.090000	29.440000	1.769140	30.507756	5.680583	30.507756
16.100000	32.800000	2.017523	31.124117	5.714451	31.124117
16.110000	29.840000	1.734063	31.743617	5.748413	31.743617
16.120000	35.120000	2.173528	32.366209	5.782471	32.366209
16.130000	34.160000	1.802824	32.991850	5.816624	32.991850
16.140000	34.000000	2.463169	33.620498	5.850872	33.620498
16.150000	37.920000	1.472869	34.252112	5.885215	34.252112
16.160000	33.760000	2.147579	34.886653	5.919654	34.886653
16.170000	34.400000	1.651181	35.524083	5.954187	35.524083
16.180000	33.440000	2.955716	36.164366	5.988815	36.164366
16.190000	31.760000	1.648544	36.807465	6.023539	36.807465
16.200000	33.680000	2.060462	37.453347	6.058357	37.453347
16.210000	36.720000	1.813302	38.101979	6.093270	38.101979
16.220000	38.960000	1.807079	38.753329	6.128278	38.753329
16.230000	39.840000	2.436837	39.407365	6.163381	39.407365
16.240000	41.040000	2.049375	40.064057	6.198579	40.064057
16.250000	36.320000	1.649941	40.723375	6.233871	40.723375
16.260000	42.800000	2.621755	41.385292	6.269259	41.385292
16.270000	45.040000	1.995579	42.049779	6.304741	42.049779
16.280000	43.280000	2.501532	42.716809	6.340318	42.716809
16.290000	43.360000	1.794997	43.386356	6.375989	43.386356
16.300000	43.840000	2.579724	44.058395	6.411755	44.058395
16.310000	42.880000	2.416159	44.732899	6.447616	44.732899
16.320000	43.360000	1.961942	45.409846	6.483572	45.409846
16.330000	47.440000	2.081599	46.089211	6.519621	46.089211
16.340000	46.480000	2.357707	46.770971	6.555766	46.770971
16.350000	49.760000	2.105444	47.455103	6.592005	47.455103
16.360000	48.640000	2.097526	48.141586	6.628338	48.141586
16.370000	50.480000	2.615107	48.830398	6.664766	48.830398
16.380000	47.440000	2.238628	49.521518	6.701288	49.521518
16.390000	47.600000	2.367784	50.214924	6.737905	50.214924
16.400000	50.480000	2.305555	50.910598	6.774616	50.910598
16.410000	52.800000	2.039608	51.608519	6.811422	51.608519
16.420000	50.800000	1.792429	52.308669	6.848321	52.308669
16.430000	55.440000	3.101525	53.011028	6.885315	53.011028
16.440000	55.680000	2.464935	53.715578	6.922403	53.715578
16.450000	58.480000	1.914258	54.422300	6.959586	54.422300
16.460000	57.840000	2.394447	55.131178	6.996862	55.131178
16.470000	56.000000	2.662931	55.842194	7.034233	55.842194
16.480000	58.400000	2.315858	56.555331	7.071698	56.555331
16.490000	57.680000	1.965071	57.270572	7.109257	57.270572
16.500000	59.360000	2.358901	57.987901	7.146910	57.987901
16.510000	63.200000	3.058889	58.707301	7.184657	58.707301
16.520000	62.160000	2.643440	59.428759	7.222498	59.428759
16.530000	65.440000	3.519127	60.152257	7.260434	60.152257
16.540000	64.000000	2.176235	60.877781	7.298463	60.877781
16.550000	63.680000	2.339723	61.605316	7.336586	61.605316
16.560000	62.960000	2.400320	62.334847	7.374803	62.334847
16.570000	63.440000	2.000064	63.066361	7.413114	63.066361
16.580000	68.880000	3.202159	63.799842	7.451518	63.799842
16.590000	64.640000	2.576745	64.535278	7.490017	64.535278
16.600000	70.960000	3.100699	65.272655	7.528609	65.272655
16.610000	63.440000	2.561300	66.011960	7.567295	66.011960
16.620000	64.640000	3.041515	66.753178	7.606075	66.753178
16.630000	68.000000	3.312039	67.496299	7.644949	67.496299
16.640000	72.560000	2.779398	68.241308	7.683916	68.241308
16.650000	67.040000	2.826435	68.988194	7.722977	68.988194
16.660000	70.480000	2.637041	69.736943	7.762132	69.736943
16.670000	70.160000	2.868689	70.487546	7.801380	70.487546
16.680000	69.760000	2.194743	71.239988	7.840722	71.239988
16.690000	72.160000	3.390188	71.994260	7.880157	71.994260
16.700000	74.640000	3.083313	72.750348	7.919686	72.750348
16.710000	74.320000	3.301743	73.508243	7.959308	73.508243
16.720000	82.240000	3.677077	74.267933	7.999024	74.267933
16.730000	73.680000	2.838997	75.029406	8.038834	75.029406
16.740000	77.840000	2.700921	75.792653	8.078737	75.792653
16.750000	74.240000	2.935728	76.557662	8.118733	76.557662
16.760000	82.800000	2.948084	77.324424	8.158822	77.324424
16.770000	79.360000	2.377817	78.092927	8.199005	78.092927
16.780000	80.720000	2.895249	78.863162	8.239282	78.863162
16.790000	81.280000	3.548755	79.635119	8.279651	79.635119
16.800000	86.000000	2.689238	80.408788	8.320114	80.408788
16.810000	83.520000	3.015225	81.184159	8.360670	81.184159
16.820000	83.280000	2.343003	81.961222	8.401320	81.961222
16.830000	83.600000	3.054701	82.739969	8.442062	82.739969
16.840000	85.040000	3.004253	83.520390	8.482898	83.520390
16.850000	82.160000	2.736234	84.302475	8.523827	84.302475
16.860000	82.480000	2.838095	85.086216	8.564849	85.086216
16.870000	86.800000	3.263372	85.871603	8.605964	85.871603
16.880000	82.400000	3.147570	86.658629	8.647172	86.658629
16.890000	93.680000	2.874840	87.447283	8.688473	87.447283
16.900000	86.400000	2.532351	88.237559	8.729868	88.237559
16.910000	92.640000	3.393585	89.029446	8.771355	89.029446
16.920000	92.240000	3.277697	89.822938	8.812935	89.822938
16.930000	89.440000	3.160800	90.618025	8.854608	90.618025
16.940000	90.560000	3.115936	91.414699	8.896374	91.414699
16.950000	95.200000	3.888033	92.212953	8.938234	92.212953
16.960000	84.720000	3.483226	93.012779	8.980185	93.012779
16.970000	97.760000	3.082482	93.814168	9.022230	93.814168
16.980000	92.000000	3.255518	94.617113	9.064368	94.617113
16.990000	90.240000	3.715171	95.421606	9.106598	95.421606
17.000000	86.960000	2.959178	96.227641	9.148922	96.227641
17.010000	97.760000	2.924807	97.035208	9.191338	97.035208
17.020000	96.480000	2.858318	97.844302	9.233846	97.844302
17.030000	103.400000	4.249085	98.654914	9.276448	98.654914
17.040000	100.000000	2.662931	99.467038	9.319142	99.467038
17.050000	101.000000	3.454157	100.280666	9.361929	100.280666
17.060000	103.400000	4.143853	101.095792	9.404808	101.095792
17.070000	98.720000	3.775932	101.912408	9.447780	101.912408
17.080000	104.200000	2.955294	102.730508	9.490845	102.730508
17.090000	106.600000	3.918408	103.550084	9.534002	103.550084
17.100000	99.680000	3.397279	104.371131	9.577252	104.371131
17.110000	102.900000	3.241888	105.193642	9.620594	105.193642
17.120000	110.700000	3.797905	106.017609	9.664029	106.017609
17.130000	105.400000	4.158038	106.843027	9.707556	106.843027
17.140000	103.800000	3.289401	107.669889	9.751176	107.669889
17.150000	105.400000	2.644905	108.498190	9.794888	108.498190
17.160000	107.000000	3.538361	109.327921	9.838693	109.327921
17.170000	102.200000	3.610341	110.159078	9.882590	110.159078
17.180000	112.100000	3.368525	110.991654	9.926579	110.991654
17.190000	117.200000	3.539944	111.825644	9.970660	111.825644
17.200000	111.900000	3.589284	112.661041	10.014834	112.661041
17.210000	111.900000	2.843055	113.497839	10.059101	113.497839
17.220000	117.000000	2.760000	114.336032	10.103459	114.336032
17.230000	116.800000	3.116922	115.175615	10.147910	115.175615
17.240000	116.200000	3.253404	116.016582	10.192453	116.016582
17.250000	110.600000	3.475215	116.858928	10.237088	116.858928
17.260000	113.700000	3.755199	117.702646	10.281816	117.702646
17.270000	114.400000	4.121359	118.547731	10.326635	118.547731
17.280000	117.000000	3.574353	119.394177	10.371547	119.394177
17.290000	122.800000	3.459480	120.241980	10.416551	120.241980
17.300000	118.500000	3.666552	121.091133	10.461647	121.091133
17.310000	113.800000	4.005316	121.941632	10.506835	121.941632
17.320000	120.900000	2.694186	122.793471	10.552115	122.793471
17.330000	128.100000	2.951298	123.646644	10.597487	123.646644
17.340000	124.400000	5.169758	124.501148	10.642951	124.501148
17.350000	119.000000	3.960000	125.356975	10.688507	125.356975
17.360000	130.600000	3.106071	126.214123	10.734155	126.214123
17.370000	131.900000	3.825776	127.072584	10.779894	127.072584
17.380000	126.600000	3.365186	127.932355	10.825726	127.932355
17.390000	121.400000	4.519150	128.793431	10.871650	128.793431
17.400000	131.200000	3.304300	129.655806	10.917666	129.655806
17.410000	124.300000	4.856575	130.519476	10.963773	130.519476
17.420000	133.000000	3.781428	131.384436	11.009972	131.384436
17.430000	127.100000	4.847870	132.250681	11.056263	132.250681
17.440000	139.900000	3.835800	133.118207	11.102646	133.118207
17.450000	139.700000	3.575349	133.987008	11.149121	133.987008
17.460000	141.300000	4.179770	134.857081	11.195687	134.857081
17.470000	137.100000	3.709588	135.728421	11.242345	135.728421
17.480000	144.400000	4.755796	136.601022	11.289095	136.601022
17.490000	143.400000	4.533290	137.474881	11.335937	137.474881
17.500000	138.600000	3.707247	138.349993	11.382870	138.349993
17.510000	133.300000	4.362577	139.226354	11.429895	139.226354
17.520000	148.400000	6.078947	140.103960	11.477011	140.103960
17.530000	140.800000	3.505424	140.982805	11.524219	140.982805
17.540000	147.400000	3.902040	141.862886	11.571518	141.862886
17.550000	145.200000	3.966258	142.744199	11.618910	142.744199
17.560000	140.300000	4.938899	143.626738	11.666392	143.626738
17.570000	150.200000	4.071246	144.510501	11.713966	144.510501
17.580000	145.900000	3.535387	145.395483	11.761632	145.395483
17.590000	151.000000	2.785390	146.281680	11.809389	146.281680
17.600000	157.800000	4.589972	147.169087	11.857238	147.169087
17.610000	148.400000	3.492621	148.057701	11.905178	148.057701
17.620000	151.000000	4.695019	148.947517	11.953209	148.947517
17.630000	146.200000	4.739519	149.838533	12.001332	149.838533
17.640000	154.400000	4.545239	150.730743	12.049546	150.730743
17.650000	151.400000	3.857502	151.624144	12.097851	151.624144
17.660000	155.500000	5.396629	152.518731	12.146248	152.518731
17.670000	153.000000	4.057388	153.414502	12.194736	153.414502
17.680000	160.900000	3.461479	154.311452	12.243316	154.311452
17.690000	159.800000	4.648716	155.209578	12.291986	155.209578
17.700000	164.600000	3.943156	156.108876	12.340748	156.108876
17.710000	159.800000	4.948794	157.009341	12.389602	157.009341
17.720000	167.400000	4.627189	157.910971	12.438546	157.910971
17.730000	168.500000	5.479015	158.813761	12.487581	158.813761
17.740000	169.000000	3.096579	159.717709	12.536708	159.717709
17.750000	168.700000	5.050632	160.622810	12.585926	160.622810
17.760000	172.700000	5.065815	161.529061	12.635235	161.529061
17.770000	170.500000	5.116600	162.436458	12.684635	162.436458
17.780000	171.600000	4.345112	163.344998	12.734126	163.344998
17.790000	177.400000	4.372313	164.254677	12.783708	164.254677
17.800000	175.300000	5.000968	165.165493	12.833382	165.165493
17.810000	173.200000	4.297720	166.077440	12.883146	166.077440
17.820000	172.700000	4.674193	166.990517	12.933001	166.990517
17.830000	178.800000	4.228664	167.904719	12.982947	167.904719
17.840000	171.500000	3.763031	168.820044	13.032985	168.820044
17.850000	172.200000	4.117203	169.736487	13.083113	169.736487
17.860000	184.200000	3.282779	170.654046	13.133332	170.654046
17.870000	177.700000	5.262615	171.572717	13.183642	171.572717
17.880000	183.000000	4.405270	172.492498	13.234043	172.492498
17.890000	177.900000	3.566029	173.413384	13.284535	173.413384
17.900000	182.800000	3.112812	174.335373	13.335117	174.335373
17.910000	184.000000	5.735503	175.258462	13.385791	175.258462
17.920000	181.300000	3.787780	176.182646	13.436555	176.182646
17.930000	185.800000	3.764125	177.107924	13.487410	177.107924
17.940000	182.600000	4.306237	178.034292	13.538356	178.034292
17.950000	183.000000	5.471819	178.961747	13.589393	178.961747
17.960000	183.400000	4.665482	179.890285	13.640520	179.890285
17.970000	193.300000	3.199762	180.819905	13.691738	180.819905
17.980000	193.700000	3.946330	181.750602	13.743047	181.750602
17.990000	192.000000	6.151162	182.682374	13.794446	182.682374
18.000000	196.000000	4.913329	183.615218	13.845936	183.615218
18.010000	196.200000	5.220667	184.549131	13.897517	184.549131
18.020000	189.400000	4.343234	185.484110	13.949188	185.484110
18.030000	204.600000	4.277607	186.420151	14.000950	186.420151
18.040000	198.500000	5.771412	187.357253	14.052803	187.357253
18.050000	200.300000	4.304686	188.295412	14.104746	188.295412
18.060000	208.500000	4.484685	189.234625	14.156779	189.234625
18.070000	191.400000	4.537806	190.174890	14.208904	190.174890
18.080000	205.100000	5.367852	191.116203	14.261118	191.116203
18.090000	207.400000	4.940251	192.058563	14.313423	192.058563
18.100000	204.400000	4.318518	193.001965	14.365819	193.001965
18.110000	207.200000	6.019701	193.946408	14.418305	193.946408
18.120000	215.400000	5.428841	194.891888	14.470882	194.891888
18.130000	214.400000	4.033460	195.838403	14.523549	195.838403
18.140000	206.200000	5.427427	196.785951	14.576306	196.785951
18.150000	202.500000	5.204652	197.734527	14.629154	197.734527
18.160000	204.900000	4.288897	198.684131	14.682092	198.684131
18.170000	200.700000	4.967583	199.634759	14.735120	199.634759
18.180000	221.800000	5.183265	200.586408	14.788239	200.586408
18.190000	221.500000	5.904066	201.539076	14.841448	201.539076
18.200000	223.400000	4.761882	202.492760	14.894747	202.492760
18.210000	205.200000	5.216589	203.447459	14.948137	203.447459
18.220000	221.900000	4.405787	204.403168	15.001617	204.403168
18.230000	224.600000	5.755248	205.359886	15.055187	205.359886
18.240000	222.100000	6.180725	206.317609	15.108847	206.317609
18.250000	214.200000	4.933250	207.276337	15.162598	207.276337
18.260000	224.500000	4.702042	208.236065	15.216439	208.236065
18.270000	223.400000	5.280636	209.196792	15.270369	209.196792
18.280000	230.800000	5.167282	210.158515	15.324390	210.158515
18.290000	224.500000	4.774976	211.121232	15.378502	211.121232
18.300000	228.200000	5.511210	212.084940	15.432703	212.084940
18.310000	232.200000	5.813006	213.049636	15.486994	213.049636
18.320000	227.800000	5.219441	214.015319	15.541376	214.015319
18.330000	237.200000	6.434905	214.981986	15.595847	214.981986
18.340000	233.400000	5.552398	215.949635	15.650409	215.949635
18.350000	237.700000	5.933694	216.918262	15.705060	216.918262
18.360000	238.100000	5.985028	217.887867	15.759802	217.887867
18.370000	234.200000	5.688360	218.858446	15.814633	218.858446
18.380000	234.000000	4.230177	219.829997	15.869555	219.829997
18.390000	237.400000	5.243175	220.802519	15.924566	220.802519
18.400000	231.500000	6.170154	221.776008	15.979668	221.776008
18.410000	240.200000	5.160992	222.750462	16.034859	222.750462
18.420000	248.700000	5.573516	223.725879	16.090140	223.725879
18.430000	250.600000	4.967124	224.702257	16.145511	224.702257
18.440000	241.400000	4.695564	225.679594	16.200972	225.679594
18.450000	249.400000	5.832351	226.657887	16.256523	226.657887
18.460000	246.600000	5.303855	227.637134	16.312164	227.637134
18.470000	263.300000	6.433792	228.617333	16.367894	228.617333
18.480000	247.400000	5.222383	229.598482	16.423715	229.598482
18.490000	243.800000	4.604450	230.580579	16.479625	230.580579
18.500000	244.100000	5.488585	231.563621	16.535625	231.563621
18.510000	255.000000	4.802832	232.547606	16.591714	232.547606
18.520000	252.200000	4.845022	233.532533	16.647893	233.532533
18.530000	256.100000	6.199335	234.518398	16.704162	234.518398
18.540000	255.500000	3.916376	235.505201	16.760521	235.505201
18.550000	261.100000	5.513714	236.492938	16.816970	236.492938
18.560000	251.600000	5.512459	237.481608	16.873508	237.481608
18.570000	263.000000	5.518406	238.471209	16.930135	238.471209
18.580000	265.200000	5.416419	239.461738	16.986853	239.461738
18.590000	257.800000	4.372020	240.453194	17.043660	240.453194
18.600000	272.400000	5.086138	241.445575	17.100556	241.445575
18.610000	270.000000	6.341735	242.438878	17.157542	242.438878
18.620000	267.500000	5.368091	243.433102	17.214618	243.433102
18.630000	271.900000	6.288510	244.428244	17.271783	244.428244
18.640000	267.700000	5.911000	245.424303	17.329038	245.424303
18.650000	267.800000	5.193134	246.421276	17.386382	246.421276
18.660000	270.400000	4.965159	247.419162	17.443816	247.419162
