# Energy shift = 0.78
# a_2: 183.22472 +- 0.00099, a_1: -27.781 +- 0.066, a_0: 1.1 +- 1.7, domain: [12.78eV ,15.54eV]
# Y-offset = 0.0+-0.0163, AE = 15.5233+-0.0068, Scale Factor = 28.529+-0.2949, Alpha = 1.4645+-0.0186
# -------------------------------------------------------------
Energy	Counts	Errors	Combined Fit	Fit 1	Fit 2(incl. prev.)
12.780000	6.267000	4.434210	0.522132	0.522132	0.522132
12.790000	0.306700	1.025974	0.514123	0.514123	0.514123
12.800000	0.413300	1.014473	0.506326	0.506326	0.506326
12.810000	0.413300	1.228477	0.498740	0.498740	0.498740
12.820000	0.426700	1.277219	0.491365	0.491365	0.491365
12.830000	0.253300	0.776202	0.484201	0.484201	0.484201
12.840000	0.386700	1.050629	0.477248	0.477248	0.477248
12.850000	0.240000	0.797329	0.470506	0.470506	0.470506
12.860000	0.453300	1.086810	0.463975	0.463975	0.463975
12.870000	0.400000	1.200000	0.457655	0.457655	0.457655
12.880000	0.306700	0.944787	0.451546	0.451546	0.451546
12.890000	0.373300	1.067999	0.445649	0.445649	0.445649
12.900000	0.453300	1.180885	0.439962	0.439962	0.439962
12.910000	0.466700	1.164283	0.434486	0.434486	0.434486
12.920000	0.280000	0.800999	0.429221	0.429221	0.429221
12.930000	0.320000	0.802662	0.424167	0.424167	0.424167
12.940000	0.360000	1.034601	0.419325	0.419325	0.419325
12.950000	0.480000	1.340249	0.414693	0.414693	0.414693
12.960000	0.253300	0.776202	0.410272	0.410272	0.410272
12.970000	0.533300	1.299573	0.406063	0.406063	0.406063
12.980000	0.400000	1.131371	0.402064	0.402064	0.402064
12.990000	0.386700	1.124198	0.398276	0.398276	0.398276
13.000000	0.346700	1.051898	0.394700	0.394700	0.394700
13.010000	0.333300	0.963789	0.391334	0.391334	0.391334
13.020000	0.520000	1.315143	0.388180	0.388180	0.388180
13.030000	0.400000	1.154701	0.385236	0.385236	0.385236
13.040000	0.293300	0.812787	0.382504	0.382504	0.382504
13.050000	0.306700	0.916127	0.379982	0.379982	0.379982
13.060000	0.320000	0.926067	0.377672	0.377672	0.377672
13.070000	0.320000	1.109474	0.375573	0.375573	0.375573
13.080000	0.426700	1.121586	0.373684	0.373684	0.373684
13.090000	0.520000	1.431642	0.372007	0.372007	0.372007
13.100000	0.373300	1.251914	0.370541	0.370541	0.370541
13.110000	0.573300	1.333400	0.369285	0.369285	0.369285
13.120000	0.506700	1.268840	0.368241	0.368241	0.368241
13.130000	0.546700	1.241433	0.367408	0.367408	0.367408
13.140000	0.440000	1.262167	0.366786	0.366786	0.366786
13.150000	0.440000	1.080000	0.366374	0.366374	0.366374
13.160000	0.586700	1.506372	0.366174	0.366174	0.366174
13.170000	0.413300	1.014473	0.366185	0.366185	0.366185
13.180000	0.293300	0.990264	0.366407	0.366407	0.366407
13.190000	0.373300	1.116821	0.366840	0.366840	0.366840
13.200000	0.586700	1.317506	0.367484	0.367484	0.367484
13.210000	0.360000	1.008497	0.368339	0.368339	0.368339
13.220000	0.506700	1.135762	0.369405	0.369405	0.369405
13.230000	0.600000	1.400000	0.370682	0.370682	0.370682
13.240000	0.560000	1.368600	0.372170	0.372170	0.372170
13.250000	0.533300	1.436044	0.373869	0.373869	0.373869
13.260000	0.333300	1.017623	0.375779	0.375779	0.375779
13.270000	0.493300	1.365023	0.377901	0.377901	0.377901
13.280000	0.413300	1.090484	0.380233	0.380233	0.380233
13.290000	0.533300	1.299573	0.382776	0.382776	0.382776
13.300000	0.533300	1.169995	0.385530	0.385530	0.385530
13.310000	0.546700	1.262731	0.388495	0.388495	0.388495
13.320000	0.680000	1.439074	0.391672	0.391672	0.391672
13.330000	0.600000	1.361372	0.395059	0.395059	0.395059
13.340000	0.546700	1.304284	0.398657	0.398657	0.398657
13.350000	0.573300	1.353251	0.402467	0.402467	0.402467
13.360000	0.560000	1.425856	0.406487	0.406487	0.406487
13.370000	0.546700	1.241433	0.410719	0.410719	0.410719
13.380000	0.360000	0.866256	0.415161	0.415161	0.415161
13.390000	0.600000	1.437591	0.419814	0.419814	0.419814
13.400000	0.626700	1.309181	0.424679	0.424679	0.424679
13.410000	0.733300	1.486233	0.429755	0.429755	0.429755
13.420000	0.680000	1.528921	0.435041	0.435041	0.435041
13.430000	0.546700	1.241433	0.440539	0.440539	0.440539
13.440000	0.600000	1.400000	0.446247	0.446247	0.446247
13.450000	0.480000	1.099818	0.452167	0.452167	0.452167
13.460000	0.773300	1.579648	0.458298	0.458298	0.458298
13.470000	0.666700	1.319933	0.464639	0.464639	0.464639
13.480000	0.773300	1.596440	0.471192	0.471192	0.471192
13.490000	0.800000	1.681269	0.477956	0.477956	0.477956
13.500000	0.693300	1.404501	0.484930	0.484930	0.484930
13.510000	0.773300	1.579648	0.492116	0.492116	0.492116
13.520000	0.773300	1.596440	0.499513	0.499513	0.499513
13.530000	0.613300	1.345544	0.507121	0.507121	0.507121
13.540000	0.480000	1.279166	0.514940	0.514940	0.514940
13.550000	0.600000	1.321615	0.522970	0.522970	0.522970
13.560000	0.746700	1.317506	0.531211	0.531211	0.531211
13.570000	0.626700	1.368925	0.539663	0.539663	0.539663
13.580000	0.653300	1.451375	0.548326	0.548326	0.548326
13.590000	0.466700	1.164283	0.557200	0.557200	0.557200
13.600000	0.573300	1.292783	0.566285	0.566285	0.566285
13.610000	0.720000	1.519298	0.575581	0.575581	0.575581
13.620000	0.840000	1.716896	0.585088	0.585088	0.585088
13.630000	0.746700	1.506372	0.594806	0.594806	0.594806
13.640000	0.800000	1.514376	0.604735	0.604735	0.604735
13.650000	0.533300	1.214724	0.614875	0.614875	0.614875
13.660000	0.773300	1.528165	0.625226	0.625226	0.625226
13.670000	0.613300	1.198814	0.635789	0.635789	0.635789
13.680000	0.533300	1.146977	0.646562	0.646562	0.646562
13.690000	0.760000	1.340050	0.657546	0.657546	0.657546
13.700000	0.773300	1.456693	0.668741	0.668741	0.668741
13.710000	0.720000	1.410059	0.680148	0.680148	0.680148
13.720000	0.786700	1.494821	0.691765	0.691765	0.691765
13.730000	0.586700	1.433814	0.703594	0.703594	0.703594
13.740000	0.573300	1.271989	0.715633	0.715633	0.715633
13.750000	0.800000	1.632993	0.727883	0.727883	0.727883
13.760000	1.080000	1.827640	0.740345	0.740345	0.740345
13.770000	0.760000	1.723098	0.753017	0.753017	0.753017
13.780000	0.640000	1.312910	0.765901	0.765901	0.765901
13.790000	1.027000	1.724129	0.778995	0.778995	0.778995
13.800000	0.826700	1.569487	0.792301	0.792301	0.792301
13.810000	0.706700	1.407346	0.805818	0.805818	0.805818
13.820000	0.853300	1.589074	0.819545	0.819545	0.819545
13.830000	0.680000	1.323228	0.833484	0.833484	0.833484
13.840000	0.680000	1.493631	0.847634	0.847634	0.847634
13.850000	0.760000	1.508553	0.861994	0.861994	0.861994
13.860000	1.013000	1.754942	0.876566	0.876566	0.876566
13.870000	1.040000	1.708333	0.891349	0.891349	0.891349
13.880000	0.840000	1.536576	0.906343	0.906343	0.906343
13.890000	0.840000	1.501466	0.921547	0.921547	0.921547
13.900000	0.653300	1.451375	0.936963	0.936963	0.936963
13.910000	1.160000	2.107384	0.952590	0.952590	0.952590
13.920000	0.826700	1.668319	0.968428	0.968428	0.968428
13.930000	0.946700	1.784327	0.984477	0.984477	0.984477
13.940000	0.880000	1.557434	1.000737	1.000737	1.000737
13.950000	1.160000	1.807687	1.017208	1.017208	1.017208
13.960000	0.933300	1.783878	1.033890	1.033890	1.033890
13.970000	0.893300	1.657897	1.050783	1.050783	1.050783
13.980000	0.960000	1.676822	1.067887	1.067887	1.067887
13.990000	0.973300	1.708593	1.085202	1.085202	1.085202
14.000000	1.093000	1.827007	1.102728	1.102728	1.102728
14.010000	1.013000	1.858267	1.120465	1.120465	1.120465
14.020000	0.920000	1.722479	1.138413	1.138413	1.138413
14.030000	0.986700	1.799951	1.156573	1.156573	1.156573
14.040000	1.267000	2.045048	1.174943	1.174943	1.174943
14.050000	0.826700	1.535129	1.193524	1.193524	1.193524
14.060000	0.866700	1.623439	1.212316	1.212316	1.212316
14.070000	0.933300	1.857118	1.231320	1.231320	1.231320
14.080000	1.227000	1.815293	1.250534	1.250534	1.250534
14.090000	1.360000	1.866476	1.269959	1.269959	1.269959
14.100000	1.093000	1.797579	1.289596	1.289596	1.289596
14.110000	1.107000	1.840821	1.309443	1.309443	1.309443
14.120000	1.307000	2.226946	1.329502	1.329502	1.329502
14.130000	1.333000	2.008869	1.349771	1.349771	1.349771
14.140000	1.173000	2.015760	1.370252	1.370252	1.370252
14.150000	1.173000	1.989126	1.390943	1.390943	1.390943
14.160000	1.213000	1.726602	1.411846	1.411846	1.411846
14.170000	1.293000	2.041394	1.432959	1.432959	1.432959
14.180000	1.827000	2.612143	1.454284	1.454284	1.454284
14.190000	1.480000	2.244163	1.475819	1.475819	1.475819
14.200000	1.547000	2.054545	1.497566	1.497566	1.497566
14.210000	1.440000	2.105485	1.519524	1.519524	1.519524
14.220000	1.600000	2.297825	1.541692	1.541692	1.541692
14.230000	1.480000	1.853717	1.564072	1.564072	1.564072
14.240000	1.560000	2.102316	1.586663	1.586663	1.586663
14.250000	1.587000	2.017215	1.609465	1.609465	1.609465
14.260000	1.387000	2.273871	1.632477	1.632477	1.632477
14.270000	1.453000	1.985234	1.655701	1.655701	1.655701
14.280000	1.587000	2.095031	1.679136	1.679136	1.679136
14.290000	1.613000	2.112776	1.702782	1.702782	1.702782
14.300000	1.640000	2.066495	1.726639	1.726639	1.726639
14.310000	1.853000	2.445095	1.750707	1.750707	1.750707
14.320000	1.827000	2.550155	1.774986	1.774986	1.774986
14.330000	1.453000	2.038256	1.799476	1.799476	1.799476
14.340000	1.533000	2.083800	1.824177	1.824177	1.824177
14.350000	1.773000	2.209515	1.849089	1.849089	1.849089
14.360000	1.933000	2.415689	1.874212	1.874212	1.874212
14.370000	1.800000	2.430363	1.899546	1.899546	1.899546
14.380000	1.587000	2.289648	1.925091	1.925091	1.925091
14.390000	1.840000	2.427839	1.950847	1.950847	1.950847
14.400000	2.067000	2.359849	1.976815	1.976815	1.976815
14.410000	1.733000	2.317086	2.002993	2.002993	2.002993
14.420000	1.800000	2.259794	2.029382	2.029382	2.029382
14.430000	1.853000	2.228263	2.055982	2.055982	2.055982
14.440000	2.280000	2.540656	2.082794	2.082794	2.082794
14.450000	2.320000	2.541181	2.109816	2.109816	2.109816
14.460000	1.760000	2.064558	2.137049	2.137049	2.137049
14.470000	1.973000	2.540201	2.164494	2.164494	2.164494
14.480000	2.013000	2.658287	2.192149	2.192149	2.192149
14.490000	2.400000	2.633122	2.220015	2.220015	2.220015
14.500000	2.320000	2.743040	2.248093	2.248093	2.248093
14.510000	2.413000	2.859339	2.276381	2.276381	2.276381
14.520000	2.360000	2.713620	2.304881	2.304881	2.304881
14.530000	2.227000	2.361205	2.333591	2.333591	2.333591
14.540000	2.133000	2.305549	2.362513	2.362513	2.362513
14.550000	2.320000	2.713718	2.391645	2.391645	2.391645
14.560000	2.413000	2.868650	2.420989	2.420989	2.420989
14.570000	2.307000	2.589586	2.450544	2.450544	2.450544
14.580000	1.920000	2.431789	2.480309	2.480309	2.480309
14.590000	2.307000	2.462916	2.510286	2.510286	2.510286
14.600000	2.267000	2.351359	2.540474	2.540474	2.540474
14.610000	2.867000	3.093362	2.570873	2.570873	2.570873
14.620000	2.387000	2.526623	2.601482	2.601482	2.601482
14.630000	2.333000	2.348522	2.632303	2.632303	2.632303
14.640000	2.547000	2.874223	2.663335	2.663335	2.663335
14.650000	2.787000	2.901923	2.694578	2.694578	2.694578
14.660000	2.573000	2.676681	2.726032	2.726032	2.726032
14.670000	2.640000	2.905810	2.757697	2.757697	2.757697
14.680000	3.200000	3.265986	2.789573	2.789573	2.789573
14.690000	2.640000	2.812543	2.821659	2.821659	2.821659
14.700000	2.867000	2.813460	2.853957	2.853957	2.853957
14.710000	2.933000	3.188870	2.886466	2.886466	2.886466
14.720000	2.893000	2.668699	2.919187	2.919187	2.919187
14.730000	2.920000	2.990028	2.952118	2.952118	2.952118
14.740000	2.987000	2.964201	2.985260	2.985260	2.985260
14.750000	3.027000	3.104720	3.018613	3.018613	3.018613
14.760000	2.960000	2.630285	3.052177	3.052177	3.052177
14.770000	2.747000	2.944343	3.085952	3.085952	3.085952
14.780000	3.040000	2.690427	3.119938	3.119938	3.119938
14.790000	3.227000	2.778841	3.154136	3.154136	3.154136
14.800000	3.400000	3.121965	3.188544	3.188544	3.188544
14.810000	3.107000	2.944252	3.223163	3.223163	3.223163
14.820000	3.160000	3.134922	3.257993	3.257993	3.257993
14.830000	2.853000	3.066783	3.293035	3.293035	3.293035
14.840000	3.053000	3.180748	3.328287	3.328287	3.328287
14.850000	3.320000	2.928754	3.363750	3.363750	3.363750
14.860000	2.973000	2.807007	3.399425	3.399425	3.399425
14.870000	3.347000	3.326633	3.435310	3.435310	3.435310
14.880000	3.240000	2.927297	3.471407	3.471407	3.471407
14.890000	3.400000	3.214550	3.507714	3.507714	3.507714
14.900000	4.093000	3.527694	3.544233	3.544233	3.544233
14.910000	2.960000	3.008610	3.580962	3.580962	3.580962
14.920000	4.000000	3.509986	3.617903	3.617903	3.617903
14.930000	3.627000	3.203221	3.655055	3.655055	3.655055
14.940000	3.920000	3.353645	3.692417	3.692417	3.692417
14.950000	3.107000	2.944252	3.729991	3.729991	3.729991
14.960000	3.560000	3.628553	3.767776	3.767776	3.767776
14.970000	3.613000	3.147034	3.805771	3.805771	3.805771
14.980000	3.573000	3.246222	3.843978	3.843978	3.843978
14.990000	3.867000	3.180496	3.882396	3.882396	3.882396
15.000000	4.533000	3.778301	3.921025	3.921025	3.921025
15.010000	3.627000	3.639683	3.959864	3.959864	3.959864
15.020000	3.627000	3.697831	3.998915	3.998915	3.998915
15.030000	4.107000	3.635284	4.038177	4.038177	4.038177
15.040000	3.827000	3.708992	4.077650	4.077650	4.077650
15.050000	4.360000	3.767015	4.117334	4.117334	4.117334
15.060000	4.427000	3.582079	4.157229	4.157229	4.157229
15.070000	4.280000	3.479693	4.197335	4.197335	4.197335
15.080000	3.453000	3.281436	4.237652	4.237652	4.237652
15.090000	4.040000	3.162025	4.278180	4.278180	4.278180
15.100000	5.040000	4.135827	4.318919	4.318919	4.318919
15.110000	4.560000	3.746073	4.359869	4.359869	4.359869
15.120000	4.387000	3.360132	4.401030	4.401030	4.401030
15.130000	4.480000	3.367927	4.442403	4.442402	4.442403
15.140000	4.467000	3.669090	4.483986	4.483985	4.483986
15.150000	4.840000	3.817643	4.525781	4.525780	4.525781
15.160000	4.413000	3.754440	4.567787	4.567785	4.567787
15.170000	5.013000	3.560874	4.610005	4.610001	4.610005
15.180000	4.920000	3.896186	4.652436	4.652428	4.652436
15.190000	4.333000	3.413047	4.695079	4.695067	4.695079
15.200000	5.480000	4.101577	4.737937	4.737916	4.737937
15.210000	4.653000	3.784154	4.781011	4.780976	4.781011
15.220000	5.213000	3.992638	4.824304	4.824248	4.824304
15.230000	4.987000	4.250469	4.867822	4.867730	4.867822
15.240000	5.013000	4.231606	4.911570	4.911424	4.911570
15.250000	4.973000	3.991569	4.955560	4.955328	4.955560
15.260000	4.747000	4.242934	4.999805	4.999444	4.999805
15.270000	5.333000	4.017738	5.044327	5.043770	5.044327
15.280000	4.947000	3.582898	5.089155	5.088308	5.089155
15.290000	4.973000	3.507985	5.134332	5.133056	5.134332
15.300000	5.600000	4.338971	5.179914	5.178016	5.179914
15.310000	5.200000	3.801754	5.225977	5.223186	5.225977
15.320000	5.267000	4.042551	5.272624	5.268568	5.272624
15.330000	5.933000	4.638486	5.319988	5.314161	5.319988
15.340000	5.347000	4.390879	5.368242	5.359964	5.368242
15.350000	5.707000	4.285708	5.417607	5.405979	5.417607
15.360000	5.733000	4.070490	5.468357	5.452205	5.468357
15.370000	5.600000	4.118252	5.520834	5.498642	5.520834
15.380000	6.200000	4.753946	5.575451	5.545289	5.575451
15.390000	6.000000	3.843609	5.632706	5.592148	5.632706
15.400000	5.933000	4.522045	5.693181	5.639218	5.693181
15.410000	5.720000	4.208119	5.757557	5.686499	5.757557
15.420000	6.160000	4.587054	5.826608	5.733991	5.826608
15.430000	5.933000	4.498395	5.901203	5.781694	5.901203
15.440000	6.400000	4.239497	5.982306	5.829608	5.982306
15.450000	6.667000	4.343066	6.070959	5.877733	6.070959
15.460000	6.587000	4.587209	6.168277	5.926069	6.168277
15.470000	6.880000	4.917886	6.275428	5.974616	6.275428
15.480000	5.893000	4.250720	6.393609	6.023374	6.393609
15.490000	6.947000	4.972976	6.524029	6.072343	6.524029
15.500000	6.813000	4.258930	6.667879	6.121523	6.667879
15.510000	6.813000	4.125347	6.826306	6.170914	6.826306
15.520000	7.093000	4.645208	7.000386	6.220517	7.000386
15.530000	6.840000	4.377336	7.191101	6.270330	7.191101
15.540000	8.040000	4.802610	7.399315	6.320354	7.399315
15.550000	8.040000	5.433084	7.625757	6.370589	7.625757
15.560000	7.667000	4.723934	7.871009	6.421036	7.871009
15.570000	8.387000	5.269771	8.135496	6.471693	8.135496
15.580000	8.280000	5.153795	8.419484	6.522561	8.419484
15.590000	8.253000	4.906033	8.723086	6.573641	8.723086
15.600000	8.480000	4.956773	9.046269	6.624931	9.046269
15.610000	9.587000	5.206645	9.388864	6.676432	9.388864
15.620000	9.787000	5.446206	9.750588	6.728145	9.750588
15.630000	10.640000	5.402814	10.131054	6.780068	10.131054
15.640000	11.050000	5.579471	10.529800	6.832203	10.529800
15.650000	10.450000	5.893033	10.946298	6.884548	10.946298
15.660000	11.190000	5.460632	11.379985	6.937105	11.379985
15.670000	11.430000	6.001497	11.830268	6.989873	11.830268
15.680000	12.490000	5.932675	12.296549	7.042851	12.296549
15.690000	12.720000	6.001244	12.778233	7.096041	12.778233
15.700000	13.280000	6.569749	13.274740	7.149442	13.274740
15.710000	13.800000	7.338483	13.785515	7.203053	13.785515
15.720000	14.640000	6.855927	14.310027	7.256876	14.310027
15.730000	15.520000	6.423623	14.847782	7.310910	14.847782
15.740000	15.070000	7.116804	15.398316	7.365154	15.398316
15.750000	15.950000	7.046311	15.961201	7.419610	15.961201
15.760000	16.320000	5.892730	16.536044	7.474277	16.536044
15.770000	16.560000	7.753262	17.122479	7.529155	17.122479
15.780000	17.210000	7.098908	17.720175	7.584244	17.720175
15.790000	17.530000	7.502593	18.328824	7.639544	18.328824
15.800000	18.920000	7.584651	18.948144	7.695055	18.948144
15.810000	19.350000	7.566582	19.577877	7.750777	19.577877
15.820000	20.800000	7.436845	20.217783	7.806710	20.217783
15.830000	20.590000	7.853821	20.867639	7.862854	20.867639
15.840000	22.960000	8.280805	21.527240	7.919209	21.527240
15.850000	21.650000	8.144518	22.196393	7.975775	22.196393
15.860000	23.930000	8.347189	22.874918	8.032552	22.874918
15.870000	22.970000	8.408684	23.562645	8.089540	23.562645
15.880000	25.390000	8.510219	24.259416	8.146739	24.259416
15.890000	24.480000	7.651335	24.965080	8.204149	24.965080
15.900000	25.950000	8.233094	25.679494	8.261770	25.679494
15.910000	27.200000	9.000741	26.402523	8.319603	26.402523
15.920000	26.890000	10.160149	27.134039	8.377646	27.134039
15.930000	28.410000	9.694801	27.873917	8.435900	27.873917
15.940000	29.040000	8.943437	28.622042	8.494366	28.622042
15.950000	29.720000	9.243463	29.378301	8.553042	29.378301
15.960000	31.720000	9.868549	30.142585	8.611929	30.142585
15.970000	31.120000	10.442171	30.914792	8.671028	30.914792
15.980000	31.270000	10.452220	31.694823	8.730337	31.694823
15.990000	32.710000	9.636422	32.482582	8.789858	32.482582
16.000000	32.280000	9.748928	33.277977	8.849589	33.277977
16.010000	33.970000	10.512182	34.080919	8.909531	34.080919
16.020000	34.010000	10.806163	34.891323	8.969685	34.891323
16.030000	33.870000	9.359963	35.709106	9.030050	35.709106
16.040000	34.530000	10.277916	36.534189	9.090625	36.534189
16.050000	36.400000	10.412813	37.366493	9.151412	37.366493
16.060000	38.030000	12.326636	38.205945	9.212409	38.205945
16.070000	39.440000	10.284279	39.052470	9.273618	39.052470
16.080000	38.440000	11.120839	39.906000	9.335038	39.906000
16.090000	40.810000	10.625998	40.766466	9.396668	40.766466
16.100000	41.230000	11.597211	41.633802	9.458510	41.633802
16.110000	42.330000	11.742610	42.507942	9.520563	42.507942
16.120000	42.120000	11.114507	43.388825	9.582827	43.388825
16.130000	42.890000	11.978952	44.276390	9.645302	44.276390
16.140000	45.650000	12.784880	45.170578	9.707987	45.170578
16.150000	45.370000	10.428517	46.071330	9.770884	46.071330
16.160000	48.470000	13.918653	46.978591	9.833992	46.978591
16.170000	48.520000	11.781183	47.892305	9.897311	47.892305
16.180000	48.550000	12.274411	48.812421	9.960841	48.812421
16.190000	51.090000	12.627139	49.738884	10.024582	49.738884
16.200000	51.130000	11.947478	50.671645	10.088534	50.671645
16.210000	50.280000	11.643665	51.610655	10.152697	51.610655
16.220000	53.090000	13.373779	52.555863	10.217071	52.555863
16.230000	54.680000	13.429976	53.507224	10.281656	53.507224
16.240000	53.200000	12.423633	54.464691	10.346452	54.464691
16.250000	55.890000	15.000066	55.428219	10.411459	55.428219
16.260000	55.030000	13.322136	56.397764	10.476678	56.397764
16.270000	57.950000	13.406360	57.373282	10.542107	57.373282
16.280000	59.160000	13.740975	58.354731	10.607747	58.354731
16.290000	58.840000	13.771991	59.342069	10.673598	59.342069
16.300000	61.690000	13.520822	60.335256	10.739661	60.335256
16.310000	59.890000	13.346234	61.334253	10.805934	61.334253
16.320000	62.840000	12.422066	62.339020	10.872418	62.339020
16.330000	64.450000	13.621839	63.349519	10.939114	63.349519
16.340000	63.150000	14.465309	64.365713	11.006020	64.365713
16.350000	67.160000	12.916697	65.387565	11.073137	65.387565
16.360000	66.280000	12.587888	66.415039	11.140466	66.415039
16.370000	66.010000	17.373538	67.448099	11.208005	67.448099
16.380000	68.730000	15.228774	68.486712	11.275756	68.486712
16.390000	70.950000	14.449354	69.530843	11.343717	69.530843
16.400000	69.800000	14.541435	70.580458	11.411890	70.580458
16.410000	73.440000	15.163324	71.635526	11.480273	71.635526
16.420000	74.320000	14.089391	72.696013	11.548868	72.696013
16.430000	74.530000	14.197966	73.761888	11.617674	73.761888
16.440000	76.960000	13.437698	74.833121	11.686690	74.833121
16.450000	76.970000	16.848718	75.909679	11.755918	75.909679
16.460000	78.010000	14.965733	76.991534	11.825357	76.991534
16.470000	76.790000	16.683560	78.078656	11.895006	78.078656
16.480000	78.440000	15.650977	79.171016	11.964867	79.171016
16.490000	82.600000	16.193414	80.268585	12.034939	80.268585
16.500000	79.520000	15.095571	81.371336	12.105222	81.371336
16.510000	81.830000	15.459085	82.479240	12.175716	82.479240
16.520000	83.570000	16.113906	83.592270	12.246420	83.592270
16.530000	85.410000	15.888859	84.710400	12.317336	84.710400
16.540000	87.190000	15.005949	85.833603	12.388463	85.833603
16.550000	85.270000	16.535081	86.961853	12.459801	86.961853
16.560000	90.250000	16.251846	88.095125	12.531350	88.095125
16.570000	90.280000	16.918676	89.233394	12.603110	89.233394
16.580000	91.590000	16.292815	90.376634	12.675081	90.376634
16.590000	91.250000	16.617335	91.524822	12.747263	91.524822
16.600000	92.750000	18.447109	92.677933	12.819656	92.677933
16.610000	95.920000	19.173426	93.835944	12.892260	93.835944
16.620000	95.800000	18.702941	94.998830	12.965076	94.998830
16.630000	96.640000	16.732117	96.166570	13.038102	96.166570
16.640000	96.050000	15.736068	97.339140	13.111339	97.339140
16.650000	98.070000	18.780723	98.516519	13.184787	98.516519
16.660000	98.550000	18.017616	99.698683	13.258446	99.698683
16.670000	99.970000	16.898105	100.885611	13.332317	100.885611
16.680000	103.500000	18.744155	102.077282	13.406398	102.077282
16.690000	104.300000	15.479944	103.273674	13.480690	103.273674
16.700000	103.600000	19.689049	104.474767	13.555194	104.474767
16.710000	106.700000	20.039012	105.680540	13.629908	105.680540
16.720000	105.700000	17.305163	106.890973	13.704833	106.890973
16.730000	106.700000	18.043115	108.106044	13.779970	108.106044
16.740000	106.900000	19.311741	109.325736	13.855317	109.325736
16.750000	114.200000	18.352039	110.550027	13.930876	110.550027
16.760000	109.700000	18.383670	111.778899	14.006645	111.778899
16.770000	110.800000	16.703213	113.012333	14.082626	113.012333
16.780000	111.800000	16.556248	114.250309	14.158817	114.250309
16.790000	116.400000	18.635164	115.492809	14.235220	115.492809
16.800000	112.200000	20.950672	nan	14.311834	 
16.810000	115.500000	17.937577	nan	14.388658	 
16.820000	116.700000	19.936482	nan	14.465694	 
16.830000	116.100000	18.345045	nan	14.542941	 
16.840000	119.200000	18.660618	nan	14.620398	 
16.850000	116.800000	18.593045	nan	14.698067	 
16.860000	121.800000	20.093050	nan	14.775947	 
16.870000	122.000000	19.991331	nan	14.854038	 
16.880000	122.300000	18.253602	nan	14.932339	 
16.890000	122.200000	19.033935	nan	15.010852	 
16.900000	123.400000	19.183813	nan	15.089576	 
16.910000	125.800000	20.781209	nan	15.168511	 
16.920000	126.600000	20.869563	nan	15.247657	 
16.930000	125.200000	18.246022	nan	15.327014	 
16.940000	126.900000	20.200974	nan	15.406582	 
16.950000	129.600000	21.543878	nan	15.486361	 
16.960000	129.100000	20.997127	nan	15.566351	 
16.970000	130.400000	21.446740	nan	15.646552	 
16.980000	128.100000	19.310498	nan	15.726964	 
16.990000	133.800000	21.107408	nan	15.807587	 
17.000000	134.800000	26.297072	nan	15.888421	 
17.010000	133.000000	20.576686	nan	15.969467	 
17.020000	137.200000	18.946662	nan	16.050723	 
17.030000	135.100000	20.766303	nan	16.132190	 
17.040000	139.200000	20.387840	nan	16.213868	 
17.050000	137.400000	20.386074	nan	16.295758	 
17.060000	140.400000	19.920241	nan	16.377858	 
17.070000	141.700000	21.427319	nan	16.460169	 
17.080000	139.000000	19.924859	nan	16.542692	 
17.090000	144.600000	23.122111	nan	16.625425	 
17.100000	141.200000	20.050337	nan	16.708369	 
17.110000	143.800000	20.944816	nan	16.791525	 
17.120000	148.800000	21.059028	nan	16.874891	 
17.130000	145.000000	21.752241	nan	16.958469	 
17.140000	147.600000	20.715341	nan	17.042257	 
17.150000	148.300000	21.985192	nan	17.126257	 
17.160000	151.600000	21.788437	nan	17.210468	 
17.170000	153.300000	21.828223	nan	17.294889	 
17.180000	150.100000	21.578863	nan	17.379522	 
17.190000	151.000000	21.067194	nan	17.464365	 
17.200000	152.800000	28.969593	nan	17.549420	 
17.210000	155.200000	25.674163	nan	17.634686	 
17.220000	157.100000	21.870818	nan	17.720163	 
17.230000	158.300000	20.646985	nan	17.805850	 
17.240000	160.500000	19.463384	nan	17.891749	 
17.250000	162.800000	21.256403	nan	17.977859	 
17.260000	157.600000	20.857613	nan	18.064180	 
17.270000	159.400000	22.077379	nan	18.150712	 
17.280000	164.400000	22.815083	nan	18.237455	 
17.290000	166.400000	21.186033	nan	18.324409	 
17.300000	165.100000	21.667349	nan	18.411573	 
17.310000	167.900000	23.917790	nan	18.498949	 
17.320000	167.000000	21.367577	nan	18.586536	 
17.330000	170.000000	22.485551	nan	18.674334	 
17.340000	172.000000	22.682739	nan	18.762344	 
17.350000	171.500000	22.797295	nan	18.850564	 
17.360000	174.700000	21.269054	nan	18.938995	 
17.370000	177.000000	23.419365	nan	19.027637	 
17.380000	174.800000	24.028872	nan	19.116490	 
17.390000	177.000000	22.305455	nan	19.205554	 
17.400000	179.800000	23.493488	nan	19.294830	 
17.410000	175.100000	22.327726	nan	19.384316	 
17.420000	184.900000	22.789983	nan	19.474013	 
17.430000	182.200000	24.256353	nan	19.563921	 
17.440000	183.200000	23.118593	nan	19.654041	 
17.450000	188.100000	24.176173	nan	19.744371	 
17.460000	185.900000	22.592432	nan	19.834912	 
17.470000	192.100000	25.663346	nan	19.925665	 
17.480000	189.200000	22.237386	nan	20.016628	 
17.490000	192.700000	23.031905	nan	20.107803	 
17.500000	194.200000	22.991651	nan	20.199188	 
17.510000	192.800000	25.260984	nan	20.290785	 
17.520000	195.700000	24.311739	nan	20.382592	 
17.530000	194.700000	24.925476	nan	20.474611	 
17.540000	198.300000	24.324240	nan	20.566840	 
17.550000	198.300000	22.029601	nan	20.659281	 
17.560000	200.200000	24.827673	nan	20.751933	 
17.570000	202.600000	25.895946	nan	20.844795	 
17.580000	203.900000	24.689471	nan	20.937869	 
17.590000	203.500000	26.588406	nan	21.031154	 
17.600000	205.100000	26.170199	nan	21.124650	 
17.610000	207.800000	23.078244	nan	21.218356	 
17.620000	210.200000	31.666554	nan	21.312274	 
17.630000	214.600000	26.421557	nan	21.406403	 
17.640000	207.300000	28.672577	nan	21.500743	 
17.650000	213.900000	24.785090	nan	21.595294	 
17.660000	213.300000	26.310492	nan	21.690056	 
17.670000	217.000000	24.370200	nan	21.785029	 
17.680000	217.900000	27.267795	nan	21.880213	 
17.690000	218.400000	24.580751	nan	21.975608	 
17.700000	221.800000	27.578301	nan	22.071214	 
17.710000	224.600000	23.028272	nan	22.167031	 
17.720000	218.000000	26.910221	nan	22.263059	 
17.730000	224.200000	24.957724	nan	22.359298	 
17.740000	224.700000	25.366474	nan	22.455748	 
17.750000	223.600000	27.365185	nan	22.552409	 
17.760000	227.800000	24.916233	nan	22.649281	 
17.770000	229.900000	27.974262	nan	22.746365	 
17.780000	232.500000	26.191029	nan	22.843659	 
17.790000	231.600000	27.261303	nan	22.941164	 
17.800000	234.100000	28.412849	nan	23.038880	 
17.810000	232.300000	30.197958	nan	23.136808	 
17.820000	235.100000	26.258700	nan	23.234946	 
17.830000	240.000000	26.741229	nan	23.333295	 
17.840000	243.700000	29.434481	nan	23.431856	 
17.850000	243.800000	26.908388	nan	23.530627	 
17.860000	242.400000	26.341653	nan	23.629610	 
17.870000	241.200000	26.192314	nan	23.728803	 
17.880000	246.100000	26.266671	nan	23.828208	 
17.890000	254.000000	28.417835	nan	23.927823	 
17.900000	248.100000	28.223241	nan	24.027650	 
17.910000	245.900000	25.632050	nan	24.127687	 
17.920000	249.600000	28.416239	nan	24.227936	 
17.930000	256.500000	27.852169	nan	24.328396	 
17.940000	250.700000	29.068826	nan	24.429066	 
17.950000	253.400000	27.640888	nan	24.529948	 
17.960000	259.000000	46.159001	nan	24.631041	 
17.970000	264.200000	28.822167	nan	24.732345	 
17.980000	259.300000	28.250156	nan	24.833859	 
17.990000	260.300000	29.187292	nan	24.935585	 
18.000000	268.300000	40.517182	nan	25.037522	 
18.010000	264.500000	29.925853	nan	25.139670	 
18.020000	268.800000	29.292001	nan	25.242029	 
18.030000	268.000000	28.472677	nan	25.344599	 
18.040000	270.900000	29.977358	nan	25.447380	 
18.050000	270.000000	27.751757	nan	25.550372	 
18.060000	269.400000	27.469595	nan	25.653575	 
18.070000	275.100000	28.565329	nan	25.756989	 
18.080000	272.500000	28.718345	nan	25.860614	 
18.090000	275.700000	31.340740	nan	25.964450	 
18.100000	273.900000	26.226488	nan	26.068497	 
18.110000	276.900000	27.648785	nan	26.172755	 
18.120000	281.300000	28.682945	nan	26.277224	 
18.130000	284.000000	29.966648	nan	26.381904	 
18.140000	282.300000	30.600251	nan	26.486795	 
18.150000	284.500000	28.664670	nan	26.591898	 
18.160000	286.600000	27.788487	nan	26.697211	 
18.170000	293.300000	34.090067	nan	26.802735	 
18.180000	287.500000	41.538536	nan	26.908471	 
18.190000	290.300000	28.635072	nan	27.014417	 
18.200000	291.400000	27.492496	nan	27.120574	 
18.210000	295.400000	29.901126	nan	27.226943	 
18.220000	297.800000	29.740702	nan	27.333522	 
18.230000	300.600000	27.749114	nan	27.440313	 
18.240000	295.800000	28.818096	nan	27.547314	 
18.250000	299.500000	31.517561	nan	27.654526	 
18.260000	306.400000	29.225468	nan	27.761950	 
18.270000	303.900000	29.139149	nan	27.869585	 
18.280000	313.000000	29.519485	nan	27.977430	 
18.290000	305.300000	30.647838	nan	28.085487	 
18.300000	305.500000	31.106430	nan	28.193754	 
18.310000	309.000000	31.303035	nan	28.302233	 
18.320000	315.000000	28.875595	nan	28.410923	 
18.330000	312.300000	33.571248	nan	28.519823	 
18.340000	311.800000	28.109263	nan	28.628935	 
18.350000	314.200000	32.087505	nan	28.738258	 
18.360000	316.700000	30.194558	nan	28.847792	 
18.370000	318.900000	31.337847	nan	28.957537	 
18.380000	318.300000	29.280061	nan	29.067492	 
18.390000	325.000000	29.422667	nan	29.177659	 
18.400000	326.900000	36.882109	nan	29.288037	 
18.410000	331.700000	42.604343	nan	29.398626	 
18.420000	330.100000	34.242537	nan	29.509426	 
18.430000	327.900000	34.097732	nan	29.620437	 
18.440000	333.800000	32.977204	nan	29.731659	 
18.450000	331.900000	30.833650	nan	29.843092	 
18.460000	331.900000	31.719889	nan	29.954736	 
18.470000	334.700000	31.156112	nan	30.066591	 
18.480000	336.400000	36.097941	nan	30.178657	 
18.490000	333.400000	29.957436	nan	30.290935	 
18.500000	337.700000	35.238190	nan	30.403423	 
18.510000	336.700000	32.027228	nan	30.516122	 
18.520000	341.600000	32.721858	nan	30.629032	 
18.530000	344.800000	34.632547	nan	30.742153	 
18.540000	345.300000	32.935928	nan	30.855486	 
18.550000	345.600000	29.658411	nan	30.969029	 
18.560000	355.700000	34.329725	nan	31.082783	 
18.570000	347.900000	33.629541	nan	31.196749	 
18.580000	352.000000	30.516007	nan	31.310925	 
18.590000	356.600000	36.342482	nan	31.425313	 
18.600000	355.100000	30.107751	nan	31.539911	 
18.610000	360.000000	33.847895	nan	31.654720	 
18.620000	359.200000	34.004862	nan	31.769741	 
18.630000	368.500000	38.890402	nan	31.884972	 
18.640000	364.800000	39.776174	nan	32.000415	 
18.650000	363.600000	36.174098	nan	32.116069	 
18.660000	366.400000	35.489792	nan	32.231933	 
18.670000	366.300000	31.870603	nan	32.348009	 
18.680000	371.600000	35.219616	nan	32.464295	 
18.690000	369.600000	34.547822	nan	32.580793	 
18.700000	374.800000	34.962075	nan	32.697502	 
18.710000	378.800000	34.064410	nan	32.814422	 
18.720000	376.600000	34.187990	nan	32.931552	 
18.730000	376.900000	33.216371	nan	33.048894	 
18.740000	382.900000	31.990613	nan	33.166447	 
18.750000	385.700000	34.853933	nan	33.284211	 
18.760000	385.500000	34.691738	nan	33.402186	 
18.770000	387.300000	36.391528	nan	33.520372	 
18.780000	387.400000	51.135037	nan	33.638768	 
18.790000	389.900000	35.517836	nan	33.757376	 
18.800000	393.900000	34.532989	nan	33.876195	 
18.810000	391.400000	34.456504	nan	33.995225	 
18.820000	392.600000	35.085686	nan	34.114466	 
18.830000	397.700000	30.098007	nan	34.233918	 
18.840000	393.700000	31.021143	nan	34.353582	 
18.850000	400.600000	38.098224	nan	34.473456	 
18.860000	398.300000	34.716135	nan	34.593541	 
18.870000	403.300000	35.028017	nan	34.713837	 
18.880000	403.700000	35.170508	nan	34.834344	 
18.890000	407.200000	38.040049	nan	34.955062	 
18.900000	410.300000	34.399486	nan	35.075992	 
18.910000	409.900000	34.770859	nan	35.197132	 
18.920000	413.800000	36.186591	nan	35.318483	 
18.930000	419.700000	34.754558	nan	35.440046	 
18.940000	416.900000	38.706167	nan	35.561819	 
18.950000	420.500000	35.223619	nan	35.683803	 
18.960000	422.900000	38.801641	nan	35.805999	 
18.970000	423.800000	37.541053	nan	35.928405	 
18.980000	421.000000	34.854172	nan	36.051023	 
18.990000	424.600000	37.614288	nan	36.173851	 
19.000000	427.000000	34.333851	nan	36.296891	 
19.010000	424.000000	37.524747	nan	36.420141	 
19.020000	431.800000	35.088118	nan	36.543603	 
19.030000	432.700000	37.105139	nan	36.667275	 
19.040000	436.500000	34.632114	nan	36.791159	 
19.050000	431.700000	37.612826	nan	36.915254	 
19.060000	433.500000	35.224187	nan	37.039559	 
19.070000	441.100000	36.147393	nan	37.164076	 
19.080000	436.100000	35.283339	nan	37.288804	 
19.090000	446.800000	36.301185	nan	37.413742	 
19.100000	443.600000	39.252346	nan	37.538892	 
19.110000	447.600000	39.520661	nan	37.664253	 
19.120000	451.600000	36.974009	nan	37.789825	 
19.130000	451.700000	36.375147	nan	37.915608	 
19.140000	454.100000	38.411031	nan	38.041602	 
19.150000	454.000000	36.236262	nan	38.167806	 
19.160000	457.200000	40.354298	nan	38.294222	 
19.170000	455.900000	40.970095	nan	38.420849	 
19.180000	462.800000	31.059770	nan	38.547687	 
19.190000	458.000000	40.577498	nan	38.674736	 
19.200000	468.000000	38.237155	nan	38.801996	 
19.210000	466.500000	41.365324	nan	38.929468	 
19.220000	473.500000	36.355055	nan	39.057150	 
19.230000	470.200000	39.490725	nan	39.185043	 
19.240000	474.300000	34.258887	nan	39.313147	 
19.250000	471.100000	37.705340	nan	39.441462	 
19.260000	472.000000	40.018329	nan	39.569988	 
19.270000	481.100000	35.673735	nan	39.698726	 
19.280000	477.500000	43.407181	nan	39.827674	 
19.290000	486.100000	40.041970	nan	39.956833	 
19.300000	484.200000	39.162533	nan	40.086203	 
19.310000	486.500000	41.713107	nan	40.215785	 
19.320000	483.500000	38.999615	nan	40.345577	 
19.330000	496.800000	39.727606	nan	40.475580	 
19.340000	488.900000	36.100960	nan	40.605795	 
19.350000	495.500000	40.947080	nan	40.736220	 
19.360000	494.700000	35.272643	nan	40.866857	 
19.370000	495.800000	39.645731	nan	40.997704	 
19.380000	500.400000	42.232626	nan	41.128763	 
19.390000	509.100000	63.983514	nan	41.260032	 
19.400000	512.500000	43.547943	nan	41.391513	 
19.410000	516.600000	39.665232	nan	41.523205	 
19.420000	504.800000	37.563102	nan	41.655107	 
19.430000	512.700000	39.257874	nan	41.787221	 
19.440000	504.900000	36.895122	nan	41.919546	 
19.450000	509.400000	38.938687	nan	42.052081	 
19.460000	513.200000	43.420610	nan	42.184828	 
19.470000	516.800000	38.862493	nan	42.317786	 
19.480000	519.500000	40.460639	nan	42.450955	 
19.490000	525.400000	36.132017	nan	42.584334	 
19.500000	526.800000	38.844099	nan	42.717925	 
19.510000	529.400000	43.750901	nan	42.851727	 
19.520000	533.900000	62.135760	nan	42.985740	 
19.530000	526.500000	51.037992	nan	43.119964	 
19.540000	526.800000	45.024852	nan	43.254399	 
19.550000	536.500000	37.167324	nan	43.389045	 
19.560000	535.500000	38.070767	nan	43.523902	 
19.570000	546.000000	83.127533	nan	43.658970	 
19.580000	544.200000	52.283305	nan	43.794249	 
19.590000	542.500000	45.096304	nan	43.929739	 
19.600000	548.700000	40.940567	nan	44.065440	 
19.610000	547.300000	47.307385	nan	44.201352	 
19.620000	545.700000	40.631539	nan	44.337476	 
19.630000	558.200000	44.811278	nan	44.473810	 
19.640000	551.700000	42.487386	nan	44.610355	 
19.650000	556.400000	41.049499	nan	44.747111	 
19.660000	547.900000	41.991325	nan	44.884079	 
19.670000	563.300000	42.304665	nan	45.021257	 
19.680000	572.900000	45.676391	nan	45.158646	 
19.690000	564.300000	39.488555	nan	45.296247	 
19.700000	572.300000	39.701377	nan	45.434058	 
19.710000	576.500000	38.564880	nan	45.572080	 
19.720000	573.400000	42.551271	nan	45.710314	 
19.730000	568.900000	39.142398	nan	45.848758	 
19.740000	576.300000	43.203109	nan	45.987414	 
19.750000	573.600000	43.512205	nan	46.126280	 
19.760000	581.600000	67.895331	nan	46.265358	 
19.770000	581.000000	52.210727	nan	46.404647	 
19.780000	586.500000	45.436219	nan	46.544146	 
